# author : Oliver Czoske
# source : Ester Aranzana
# date_created : 2017-11-20
# date_modified: 2025-12-16
# status: Measured at 80 K
# wavelength_unit : um
# changes :
# - 2022-03-17 (KL) Updated to match Ric Davies' email
# - 2023-06-06 (RD) Modified profiles after discussion with Schott
# - 2025-06-16 (FH) Updated filter curve based on Ric Davies' email.
# - 2025-12-16 (OC) Replaced with measured values
#
 wavelength  transmission
     0.4990      0.015460
     0.4995      0.015460
     0.5000      0.004740
     0.5005      0.005210
     0.5010      0.005660
     0.5015      0.000640
     0.5020      0.001690
     0.5025      0.007770
     0.5030      0.007610
     0.5035      0.004930
     0.5040      0.010740
     0.5045      0.000050
     0.5050      0.000000
     0.5055      0.000000
     0.5060      0.001180
     0.5065      0.000000
     0.5070      0.002500
     0.5075      0.003820
     0.5080      0.000400
     0.5085      0.014330
     0.5090      0.000000
     0.5095      0.000000
     0.5100      0.007400
     0.5105      0.005710
     0.5110      0.018150
     0.5115      0.000050
     0.5120      0.021840
     0.5125      0.000430
     0.5130      0.000000
     0.5135      0.000100
     0.5140      0.003590
     0.5145      0.001250
     0.5150      0.000450
     0.5155      0.000000
     0.5160      0.000000
     0.5165      0.014130
     0.5170      0.014570
     0.5175      0.002660
     0.5180      0.004820
     0.5185      0.005310
     0.5190      0.007680
     0.5195      0.013300
     0.5200      0.004030
     0.5205      0.001630
     0.5210      0.004300
     0.5215      0.000000
     0.5220      0.012440
     0.5225      0.010250
     0.5230      0.000920
     0.5235      0.000000
     0.5240      0.003400
     0.5245      0.000670
     0.5250      0.000000
     0.5255      0.005050
     0.5260      0.000000
     0.5265      0.004340
     0.5270      0.008040
     0.5275      0.004740
     0.5280      0.003320
     0.5285      0.002980
     0.5290      0.000000
     0.5295      0.001300
     0.5300      0.002660
     0.5305      0.000000
     0.5310      0.000000
     0.5315      0.000010
     0.5320      0.000670
     0.5325      0.000000
     0.5330      0.005930
     0.5335      0.000000
     0.5340      0.010500
     0.5345      0.000460
     0.5350      0.000590
     0.5355      0.000000
     0.5360      0.001210
     0.5365      0.001370
     0.5370      0.002930
     0.5375      0.003890
     0.5380      0.002350
     0.5385      0.004490
     0.5390      0.000120
     0.5395      0.005700
     0.5400      0.003620
     0.5405      0.001140
     0.5410      0.000250
     0.5415      0.002810
     0.5420      0.000030
     0.5425      0.000000
     0.5430      0.000000
     0.5435      0.000240
     0.5440      0.000180
     0.5445      0.000000
     0.5450      0.002730
     0.5455      0.001280
     0.5460      0.000000
     0.5465      0.000230
     0.5470      0.001300
     0.5475      0.002210
     0.5480      0.000750
     0.5485      0.002650
     0.5490      0.002360
     0.5495      0.000000
     0.5500      0.001070
     0.5505      0.000000
     0.5510      0.000000
     0.5515      0.000000
     0.5520      0.000190
     0.5525      0.001580
     0.5530      0.001730
     0.5535      0.001730
     0.5540      0.000000
     0.5545      0.000000
     0.5550      0.000000
     0.5555      0.000000
     0.5560      0.001930
     0.5565      0.000720
     0.5570      0.001310
     0.5575      0.000320
     0.5580      0.003340
     0.5585      0.000380
     0.5590      0.000000
     0.5595      0.002060
     0.5600      0.000620
     0.5605      0.001740
     0.5610      0.000350
     0.5615      0.000140
     0.5620      0.000000
     0.5625      0.003600
     0.5630      0.001220
     0.5635      0.001550
     0.5640      0.001030
     0.5645      0.000290
     0.5650      0.000000
     0.5655      0.000000
     0.5660      0.001180
     0.5665      0.000690
     0.5670      0.000000
     0.5675      0.000160
     0.5680      0.000330
     0.5685      0.000040
     0.5690      0.000500
     0.5695      0.002830
     0.5700      0.000000
     0.5705      0.000340
     0.5710      0.000630
     0.5715      0.000000
     0.5720      0.000670
     0.5725      0.000340
     0.5730      0.000510
     0.5735      0.000490
     0.5740      0.000000
     0.5745      0.000000
     0.5750      0.000350
     0.5755      0.001310
     0.5760      0.000670
     0.5765      0.001310
     0.5770      0.000380
     0.5775      0.000170
     0.5780      0.000400
     0.5785      0.000370
     0.5790      0.000340
     0.5795      0.000400
     0.5800      0.000450
     0.5805      0.000030
     0.5810      0.000000
     0.5815      0.000000
     0.5820      0.001900
     0.5825      0.000000
     0.5830      0.000770
     0.5835      0.000380
     0.5840      0.000490
     0.5845      0.000000
     0.5850      0.000730
     0.5855      0.000000
     0.5860      0.000000
     0.5865      0.000090
     0.5870      0.000360
     0.5875      0.000060
     0.5880      0.000210
     0.5885      0.000000
     0.5890      0.000870
     0.5895      0.000510
     0.5900      0.001500
     0.5905      0.000930
     0.5910      0.001340
     0.5915      0.000000
     0.5920      0.000690
     0.5925      0.000350
     0.5930      0.000300
     0.5935      0.000010
     0.5940      0.000270
     0.5945      0.000000
     0.5950      0.000870
     0.5955      0.000000
     0.5960      0.000210
     0.5965      0.000690
     0.5970      0.000690
     0.5975      0.000000
     0.5980      0.000000
     0.5985      0.001100
     0.5990      0.001130
     0.5995      0.000400
     0.6000      0.000230
     0.6005      0.000120
     0.6010      0.000020
     0.6015      0.000020
     0.6020      0.000060
     0.6025      0.000000
     0.6030      0.000000
     0.6035      0.000000
     0.6040      0.000360
     0.6045      0.000000
     0.6050      0.000550
     0.6055      0.000580
     0.6060      0.000640
     0.6065      0.000000
     0.6070      0.000000
     0.6075      0.000000
     0.6080      0.000180
     0.6085      0.000070
     0.6090      0.000460
     0.6095      0.001720
     0.6100      0.000000
     0.6105      0.000330
     0.6110      0.000050
     0.6115      0.000100
     0.6120      0.000620
     0.6125      0.000450
     0.6130      0.000050
     0.6135      0.000060
     0.6140      0.000020
     0.6145      0.000000
     0.6150      0.000150
     0.6155      0.000000
     0.6160      0.000500
     0.6165      0.000000
     0.6170      0.000480
     0.6175      0.000230
     0.6180      0.000480
     0.6185      0.000000
     0.6190      0.000020
     0.6195      0.000310
     0.6200      0.000140
     0.6205      0.004610
     0.6210      0.000790
     0.6215      0.000000
     0.6220      0.000040
     0.6225      0.000550
     0.6230      0.000100
     0.6235      0.000000
     0.6240      0.000700
     0.6245      0.000840
     0.6250      0.000000
     0.6255      0.000330
     0.6260      0.000340
     0.6265      0.000000
     0.6270      0.001760
     0.6275      0.000000
     0.6280      0.000000
     0.6285      0.001110
     0.6290      0.000000
     0.6295      0.001680
     0.6300      0.000000
     0.6305      0.000560
     0.6310      0.000340
     0.6315      0.000000
     0.6320      0.000730
     0.6325      0.002490
     0.6330      0.029210
     0.6335      0.000810
     0.6340      0.000000
     0.6345      0.000760
     0.6350      0.000070
     0.6355      0.000000
     0.6360      0.001270
     0.6365      0.000460
     0.6370      0.000000
     0.6375      0.001160
     0.6380      0.000170
     0.6385      0.000000
     0.6390      0.000900
     0.6395      0.000000
     0.6400      0.000280
     0.6405      0.000340
     0.6410      0.000000
     0.6415      0.000730
     0.6420      0.000440
     0.6425      0.000000
     0.6430      0.000700
     0.6435      0.000380
     0.6440      0.000070
     0.6445      0.000690
     0.6450      0.000020
     0.6455      0.000450
     0.6460      0.000060
     0.6465      0.000300
     0.6470      0.000230
     0.6475      0.000130
     0.6480      0.000040
     0.6485      0.000000
     0.6490      0.000000
     0.6495      0.000030
     0.6500      0.000270
     0.6505      0.000250
     0.6510      0.000040
     0.6515      0.000040
     0.6520      0.000000
     0.6525      0.000200
     0.6530      0.000000
     0.6535      0.000190
     0.6540      0.000010
     0.6545      0.000400
     0.6550      0.000190
     0.6555      0.000200
     0.6560      0.000010
     0.6565      0.000000
     0.6570      0.000410
     0.6575      0.000060
     0.6580      0.000120
     0.6585      0.000050
     0.6590      0.000010
     0.6595      0.000000
     0.6600      0.000000
     0.6605      0.000000
     0.6610      0.000000
     0.6615      0.000030
     0.6620      0.000000
     0.6625      0.000050
     0.6630      0.000210
     0.6635      0.000100
     0.6640      0.000250
     0.6645      0.000110
     0.6650      0.000020
     0.6655      0.000160
     0.6660      0.000000
     0.6665      0.000150
     0.6670      0.000000
     0.6675      0.000290
     0.6680      0.000000
     0.6685      0.000000
     0.6690      0.000500
     0.6695      0.000100
     0.6700      0.000000
     0.6705      0.000230
     0.6710      0.000240
     0.6715      0.000000
     0.6720      0.000000
     0.6725      0.000030
     0.6730      0.000230
     0.6735      0.000000
     0.6740      0.000000
     0.6745      0.000190
     0.6750      0.000080
     0.6755      0.000000
     0.6760      0.000000
     0.6765      0.000270
     0.6770      0.000000
     0.6775      0.000000
     0.6780      0.000060
     0.6785      0.000000
     0.6790      0.000020
     0.6795      0.000020
     0.6800      0.000010
     0.6805      0.000050
     0.6810      0.000170
     0.6815      0.000230
     0.6820      0.000000
     0.6825      0.000150
     0.6830      0.000140
     0.6835      0.000030
     0.6840      0.000020
     0.6845      0.000000
     0.6850      0.000080
     0.6855      0.000000
     0.6860      0.000000
     0.6865      0.000120
     0.6870      0.000170
     0.6875      0.000160
     0.6880      0.000210
     0.6885      0.000190
     0.6890      0.000030
     0.6895      0.000080
     0.6900      0.000050
     0.6905      0.000000
     0.6910      0.000000
     0.6915      0.000000
     0.6920      0.000100
     0.6925      0.000060
     0.6930      0.000030
     0.6935      0.000170
     0.6940      0.000070
     0.6945      0.000040
     0.6950      0.000150
     0.6955      0.000070
     0.6960      0.000040
     0.6965      0.000050
     0.6970      0.000000
     0.6975      0.000140
     0.6980      0.000030
     0.6985      0.000300
     0.6990      0.000020
     0.6995      0.000000
     0.7000      0.000250
     0.7005      0.000160
     0.7010      0.000030
     0.7015      0.000090
     0.7020      0.000140
     0.7025      0.000090
     0.7030      0.000120
     0.7035      0.000100
     0.7040      0.000030
     0.7045      0.000010
     0.7050      0.000030
     0.7055      0.000110
     0.7060      0.000050
     0.7065      0.000000
     0.7070      0.000080
     0.7075      0.000000
     0.7080      0.000180
     0.7085      0.000000
     0.7090      0.000000
     0.7095      0.000000
     0.7100      0.000130
     0.7105      0.000000
     0.7110      0.000070
     0.7115      0.000050
     0.7120      0.000000
     0.7125      0.000070
     0.7130      0.000110
     0.7135      0.000000
     0.7140      0.000010
     0.7145      0.000000
     0.7150      0.000020
     0.7155      0.000010
     0.7160      0.000000
     0.7165      0.000040
     0.7170      0.000100
     0.7175      0.000000
     0.7180      0.000060
     0.7185      0.000000
     0.7190      0.000140
     0.7195      0.000000
     0.7200      0.000050
     0.7205      0.000010
     0.7210      0.000130
     0.7215      0.000070
     0.7220      0.000060
     0.7225      0.000000
     0.7230      0.000000
     0.7235      0.000140
     0.7240      0.000140
     0.7245      0.000000
     0.7250      0.000000
     0.7255      0.000000
     0.7260      0.000000
     0.7265      0.000250
     0.7270      0.000190
     0.7275      0.000000
     0.7280      0.000000
     0.7285      0.000010
     0.7290      0.000110
     0.7295      0.000000
     0.7300      0.000000
     0.7305      0.000090
     0.7310      0.000080
     0.7315      0.000030
     0.7320      0.000060
     0.7325      0.000030
     0.7330      0.000000
     0.7335      0.000040
     0.7340      0.000040
     0.7345      0.000050
     0.7350      0.000000
     0.7355      0.000140
     0.7360      0.000040
     0.7365      0.000000
     0.7370      0.000110
     0.7375      0.000190
     0.7380      0.000000
     0.7385      0.000400
     0.7390      0.000380
     0.7395      0.000020
     0.7400      0.000080
     0.7405      0.000040
     0.7410      0.000110
     0.7415      0.000000
     0.7420      0.000000
     0.7425      0.000110
     0.7430      0.000030
     0.7435      0.000000
     0.7440      0.000160
     0.7445      0.000060
     0.7450      0.000000
     0.7455      0.000000
     0.7460      0.000000
     0.7465      0.000130
     0.7470      0.000000
     0.7475      0.000020
     0.7480      0.000000
     0.7485      0.000000
     0.7490      0.000100
     0.7495      0.000020
     0.7500      0.000130
     0.7505      0.000000
     0.7510      0.000030
     0.7515      0.000010
     0.7520      0.000030
     0.7525      0.000000
     0.7530      0.000080
     0.7535      0.000020
     0.7540      0.000120
     0.7545      0.000000
     0.7550      0.000010
     0.7555      0.000240
     0.7560      0.000020
     0.7565      0.000000
     0.7570      0.000050
     0.7575      0.000030
     0.7580      0.000030
     0.7585      0.000000
     0.7590      0.000060
     0.7595      0.000010
     0.7600      0.000050
     0.7605      0.000000
     0.7610      0.000040
     0.7615      0.000000
     0.7620      0.000090
     0.7625      0.000070
     0.7630      0.000000
     0.7635      0.000000
     0.7640      0.000310
     0.7645      0.000970
     0.7650      0.000000
     0.7655      0.000000
     0.7660      0.000150
     0.7665      0.000060
     0.7670      0.000000
     0.7675      0.000000
     0.7680      0.000010
     0.7685      0.000090
     0.7690      0.000000
     0.7695      0.000000
     0.7700      0.000180
     0.7705      0.000060
     0.7710      0.000050
     0.7715      0.000000
     0.7720      0.000080
     0.7725      0.000000
     0.7730      0.000000
     0.7735      0.000060
     0.7740      0.000100
     0.7745      0.000000
     0.7750      0.000000
     0.7755      0.000020
     0.7760      0.000050
     0.7765      0.000140
     0.7770      0.000000
     0.7775      0.000060
     0.7780      0.000040
     0.7785      0.000000
     0.7790      0.000000
     0.7795      0.000000
     0.7800      0.000000
     0.7805      0.000120
     0.7810      0.000010
     0.7815      0.000100
     0.7820      0.000020
     0.7825      0.000000
     0.7830      0.000000
     0.7835      0.000040
     0.7840      0.000060
     0.7845      0.000130
     0.7850      0.000050
     0.7855      0.000020
     0.7860      0.000000
     0.7865      0.000000
     0.7870      0.000000
     0.7875      0.000080
     0.7880      0.000050
     0.7885      0.000000
     0.7890      0.000030
     0.7895      0.000100
     0.7900      0.000010
     0.7905      0.000010
     0.7910      0.000010
     0.7915      0.000030
     0.7920      0.000030
     0.7925      0.000010
     0.7930      0.000060
     0.7935      0.000030
     0.7940      0.000000
     0.7945      0.000000
     0.7950      0.000020
     0.7955      0.000050
     0.7960      0.000100
     0.7965      0.000000
     0.7970      0.000060
     0.7975      0.000010
     0.7980      0.000030
     0.7985      0.000010
     0.7990      0.000000
     0.7995      0.000040
     0.8000      0.000050
     0.8005      0.000010
     0.8010      0.000080
     0.8015      0.000050
     0.8020      0.000060
     0.8025      0.000120
     0.8030      0.000000
     0.8035      0.000060
     0.8040      0.000000
     0.8045      0.000040
     0.8050      0.000050
     0.8055      0.000020
     0.8060      0.000000
     0.8065      0.000010
     0.8070      0.000000
     0.8075      0.000000
     0.8080      0.000080
     0.8085      0.000020
     0.8090      0.000010
     0.8095      0.000090
     0.8100      0.000000
     0.8105      0.000000
     0.8110      0.000020
     0.8115      0.000000
     0.8120      0.000070
     0.8125      0.000040
     0.8130      0.000000
     0.8135      0.000020
     0.8140      0.000080
     0.8145      0.000020
     0.8150      0.000040
     0.8155      0.000000
     0.8160      0.000000
     0.8165      0.000010
     0.8170      0.000010
     0.8175      0.000000
     0.8180      0.000000
     0.8185      0.000030
     0.8190      0.000020
     0.8195      0.000060
     0.8200      0.000090
     0.8205      0.000030
     0.8210      0.000000
     0.8215      0.000030
     0.8220      0.000340
     0.8225      0.000140
     0.8230      0.000000
     0.8235      0.000000
     0.8240      0.000030
     0.8245      0.000070
     0.8250      0.000040
     0.8255      0.000040
     0.8260      0.000000
     0.8265      0.000010
     0.8270      0.000010
     0.8275      0.000010
     0.8280      0.000030
     0.8285      0.000030
     0.8290      0.000070
     0.8295      0.000000
     0.8300      0.000000
     0.8305      0.000040
     0.8310      0.000010
     0.8315      0.000020
     0.8320      0.000030
     0.8325      0.000000
     0.8330      0.000010
     0.8335      0.000050
     0.8340      0.000020
     0.8345      0.000000
     0.8350      0.000100
     0.8355      0.000130
     0.8360      0.000000
     0.8365      0.000000
     0.8370      0.000000
     0.8375      0.000050
     0.8380      0.000120
     0.8385      0.000020
     0.8390      0.000000
     0.8395      0.000000
     0.8400      0.000190
     0.8405      0.000090
     0.8410      0.000000
     0.8415      0.000000
     0.8420      0.000030
     0.8425      0.000300
     0.8430      0.000050
     0.8435      0.000000
     0.8440      0.000000
     0.8445      0.000120
     0.8450      0.000090
     0.8455      0.000000
     0.8460      0.000000
     0.8465      0.000000
     0.8470      0.000000
     0.8475      0.000000
     0.8480      0.000010
     0.8485      0.000000
     0.8490      0.000080
     0.8495      0.000000
     0.8500      0.000100
     0.8505      0.000030
     0.8510      0.000040
     0.8515      0.000030
     0.8520      0.000040
     0.8525      0.000000
     0.8530      0.000020
     0.8535      0.000020
     0.8540      0.000050
     0.8545      0.000020
     0.8550      0.000000
     0.8555      0.000050
     0.8560      0.000010
     0.8565      0.000000
     0.8570      0.000020
     0.8575      0.000010
     0.8580      0.000000
     0.8585      0.000010
     0.8590      0.000000
     0.8595      0.000000
     0.8600      0.000090
     0.8605      0.000050
     0.8610      0.000000
     0.8615      0.000000
     0.8620      0.000010
     0.8625      0.000060
     0.8630      0.000000
     0.8635      0.000050
     0.8640      0.000030
     0.8645      0.000030
     0.8650      0.000000
     0.8655      0.000020
     0.8660      0.000020
     0.8665      0.000000
     0.8670      0.000060
     0.8675      0.000000
     0.8680      0.000060
     0.8685      0.000030
     0.8690      0.000040
     0.8695      0.000020
     0.8700      0.000030
     0.8705      0.000000
     0.8710      0.000010
     0.8715      0.000000
     0.8720      0.000000
     0.8725      0.000000
     0.8730      0.000000
     0.8735      0.000010
     0.8740      0.000020
     0.8745      0.000030
     0.8750      0.000020
     0.8755      0.000000
     0.8760      0.000000
     0.8765      0.000000
     0.8770      0.000030
     0.8775      0.000100
     0.8780      0.000060
     0.8785      0.000000
     0.8790      0.000000
     0.8795      0.000000
     0.8800      0.000000
     0.8805      0.000000
     0.8810      0.000000
     0.8815      0.000000
     0.8820      0.000020
     0.8825      0.000000
     0.8830      0.000000
     0.8835      0.000000
     0.8840      0.000010
     0.8845      0.000000
     0.8850      0.000060
     0.8855      0.000000
     0.8860      0.000000
     0.8865      0.000010
     0.8870      0.000000
     0.8875      0.000020
     0.8880      0.000020
     0.8885      0.000000
     0.8890      0.000000
     0.8895      0.000000
     0.8900      0.000210
     0.8905      0.000080
     0.8910      0.000000
     0.8915      0.000000
     0.8920      0.000000
     0.8925      0.000000
     0.8930      0.000000
     0.8935      0.000000
     0.8940      0.000020
     0.8945      0.000020
     0.8950      0.000000
     0.8955      0.000010
     0.8960      0.000000
     0.8965      0.000010
     0.8970      0.000000
     0.8975      0.000000
     0.8980      0.000050
     0.8985      0.000010
     0.8990      0.000000
     0.8995      0.000020
     0.9000      0.000010
     0.9005      0.000020
     0.9010      0.000010
     0.9015      0.000000
     0.9020      0.000050
     0.9025      0.000030
     0.9030      0.000000
     0.9035      0.000010
     0.9040      0.000000
     0.9045      0.000000
     0.9050      0.000000
     0.9055      0.000000
     0.9060      0.000020
     0.9065      0.000040
     0.9070      0.000010
     0.9075      0.000000
     0.9080      0.000000
     0.9085      0.000020
     0.9090      0.000000
     0.9095      0.000000
     0.9100      0.000030
     0.9105      0.000000
     0.9110      0.000000
     0.9115      0.000050
     0.9120      0.000000
     0.9125      0.000030
     0.9130      0.000000
     0.9135      0.000000
     0.9140      0.000000
     0.9145      0.000000
     0.9150      0.000020
     0.9155      0.000010
     0.9160      0.000040
     0.9165      0.000050
     0.9170      0.000040
     0.9175      0.000000
     0.9180      0.000000
     0.9185      0.000000
     0.9190      0.000000
     0.9195      0.000000
     0.9200      0.000010
     0.9205      0.000020
     0.9210      0.000030
     0.9215      0.000010
     0.9220      0.000000
     0.9225      0.000000
     0.9230      0.000020
     0.9235      0.000010
     0.9240      0.000030
     0.9245      0.000000
     0.9250      0.000000
     0.9255      0.000010
     0.9260      0.000020
     0.9265      0.000000
     0.9270      0.000000
     0.9275      0.000000
     0.9280      0.000010
     0.9285      0.000030
     0.9290      0.000010
     0.9295      0.000010
     0.9300      0.000010
     0.9305      0.000000
     0.9310      0.000000
     0.9315      0.000000
     0.9320      0.000020
     0.9325      0.000000
     0.9330      0.000020
     0.9335      0.000000
     0.9340      0.000010
     0.9345      0.000020
     0.9350      0.000000
     0.9355      0.000000
     0.9360      0.000000
     0.9365      0.000000
     0.9370      0.000020
     0.9375      0.000010
     0.9380      0.000010
     0.9385      0.000010
     0.9390      0.000010
     0.9395      0.000000
     0.9400      0.000020
     0.9405      0.000010
     0.9410      0.000010
     0.9415      0.000010
     0.9420      0.000020
     0.9425      0.000010
     0.9430      0.000010
     0.9435      0.000010
     0.9440      0.000010
     0.9445      0.000010
     0.9450      0.000020
     0.9455      0.000010
     0.9460      0.000000
     0.9465      0.000000
     0.9470      0.000000
     0.9475      0.000010
     0.9480      0.000010
     0.9485      0.000000
     0.9490      0.000000
     0.9495      0.000000
     0.9500      0.000010
     0.9505      0.000040
     0.9510      0.000010
     0.9515      0.000020
     0.9520      0.000000
     0.9525      0.000030
     0.9530      0.000000
     0.9535      0.000000
     0.9540      0.000010
     0.9545      0.000000
     0.9550      0.000010
     0.9555      0.000000
     0.9560      0.000000
     0.9565      0.000010
     0.9570      0.000000
     0.9575      0.000000
     0.9580      0.000010
     0.9585      0.000000
     0.9590      0.000010
     0.9595      0.000000
     0.9600      0.000000
     0.9605      0.000020
     0.9610      0.000010
     0.9615      0.000000
     0.9620      0.000020
     0.9625      0.000000
     0.9630      0.000010
     0.9635      0.000020
     0.9640      0.000000
     0.9645      0.000010
     0.9650      0.000000
     0.9655      0.000040
     0.9660      0.000030
     0.9665      0.000000
     0.9670      0.000010
     0.9675      0.000010
     0.9680      0.000030
     0.9685      0.000000
     0.9690      0.000010
     0.9695      0.000000
     0.9700      0.000000
     0.9705      0.000010
     0.9710      0.000000
     0.9715      0.000030
     0.9720      0.000000
     0.9725      0.000000
     0.9730      0.000020
     0.9735      0.000010
     0.9740      0.000000
     0.9745      0.000000
     0.9750      0.000010
     0.9755      0.000000
     0.9760      0.000000
     0.9765      0.000010
     0.9770      0.000010
     0.9775      0.000010
     0.9780      0.000000
     0.9785      0.000000
     0.9790      0.000020
     0.9795      0.000000
     0.9800      0.000010
     0.9805      0.000010
     0.9810      0.000000
     0.9815      0.000030
     0.9820      0.000000
     0.9825      0.000000
     0.9830      0.000000
     0.9835      0.000020
     0.9840      0.000010
     0.9845      0.000000
     0.9850      0.000000
     0.9855      0.000000
     0.9860      0.000020
     0.9865      0.000000
     0.9870      0.000010
     0.9875      0.000000
     0.9880      0.000010
     0.9885      0.000030
     0.9890      0.000020
     0.9895      0.000010
     0.9900      0.000000
     0.9905      0.000000
     0.9910      0.000000
     0.9915      0.000000
     0.9920      0.000030
     0.9925      0.000000
     0.9930      0.000020
     0.9935      0.000000
     0.9940      0.000000
     0.9945      0.000000
     0.9950      0.000010
     0.9955      0.000000
     0.9960      0.000000
     0.9965      0.000000
     0.9970      0.000020
     0.9975      0.000000
     0.9980      0.000020
     0.9985      0.000010
     0.9990      0.000010
     0.9995      0.000000
     1.0000      0.000000
     1.0005      0.000010
     1.0010      0.000000
     1.0015      0.000020
     1.0020      0.000000
     1.0025      0.000000
     1.0030      0.000000
     1.0035      0.000000
     1.0040      0.000000
     1.0045      0.000000
     1.0050      0.000000
     1.0055      0.000010
     1.0060      0.000010
     1.0065      0.000000
     1.0070      0.000000
     1.0075      0.000010
     1.0080      0.000000
     1.0085      0.000000
     1.0090      0.000000
     1.0095      0.000000
     1.0100      0.000000
     1.0105      0.000000
     1.0110      0.000010
     1.0115      0.000020
     1.0120      0.000010
     1.0125      0.000010
     1.0130      0.000010
     1.0135      0.000000
     1.0140      0.000010
     1.0145      0.000000
     1.0150      0.000020
     1.0155      0.000020
     1.0160      0.000010
     1.0165      0.000000
     1.0170      0.000020
     1.0175      0.000010
     1.0180      0.000000
     1.0185      0.000010
     1.0190      0.000000
     1.0195      0.000000
     1.0200      0.000000
     1.0205      0.000030
     1.0210      0.000000
     1.0215      0.000010
     1.0220      0.000000
     1.0225      0.000020
     1.0230      0.000000
     1.0235      0.000010
     1.0240      0.000000
     1.0245      0.000000
     1.0250      0.000000
     1.0255      0.000020
     1.0260      0.000000
     1.0265      0.000000
     1.0270      0.000010
     1.0275      0.000000
     1.0280      0.000000
     1.0285      0.000000
     1.0290      0.000110
     1.0295      0.000050
     1.0300      0.000030
     1.0305      0.000010
     1.0310      0.000000
     1.0315      0.000000
     1.0320      0.000000
     1.0325      0.000010
     1.0330      0.000020
     1.0335      0.000000
     1.0340      0.000010
     1.0345      0.000010
     1.0350      0.000030
     1.0355      0.000010
     1.0360      0.000040
     1.0365      0.000010
     1.0370      0.000020
     1.0375      0.000020
     1.0380      0.000010
     1.0385      0.000000
     1.0390      0.000000
     1.0395      0.000010
     1.0400      0.000010
     1.0405      0.000000
     1.0410      0.000010
     1.0415      0.000010
     1.0420      0.000000
     1.0425      0.000000
     1.0430      0.000020
     1.0435      0.000010
     1.0440      0.000020
     1.0445      0.000000
     1.0450      0.000020
     1.0455      0.000020
     1.0460      0.000040
     1.0465      0.000000
     1.0470      0.000030
     1.0475      0.000010
     1.0480      0.000020
     1.0485      0.000020
     1.0490      0.000120
     1.0495      0.000000
     1.0500      0.000000
     1.0505      0.000020
     1.0510      0.000000
     1.0515      0.000000
     1.0520      0.000000
     1.0525      0.000030
     1.0530      0.000000
     1.0535      0.000020
     1.0540      0.000000
     1.0545      0.000030
     1.0550      0.000020
     1.0555      0.000030
     1.0560      0.000010
     1.0565      0.000000
     1.0570      0.000010
     1.0575      0.000010
     1.0580      0.000010
     1.0585      0.000050
     1.0590      0.000000
     1.0595      0.000030
     1.0600      0.000030
     1.0605      0.000040
     1.0610      0.000020
     1.0615      0.000060
     1.0620      0.000000
     1.0625      0.000010
     1.0630      0.000000
     1.0635      0.000040
     1.0640      0.000010
     1.0645      0.000070
     1.0650      0.000000
     1.0655      0.000000
     1.0660      0.000000
     1.0665      0.000000
     1.0670      0.000000
     1.0675      0.000060
     1.0680      0.000050
     1.0685      0.000000
     1.0690      0.000000
     1.0695      0.000000
     1.0700      0.000020
     1.0705      0.000000
     1.0710      0.000010
     1.0715      0.000000
     1.0720      0.000050
     1.0725      0.000010
     1.0730      0.000010
     1.0735      0.000020
     1.0740      0.000040
     1.0745      0.000040
     1.0750      0.000000
     1.0755      0.000070
     1.0760      0.000060
     1.0765      0.000000
     1.0770      0.000060
     1.0775      0.000050
     1.0780      0.000020
     1.0785      0.000010
     1.0790      0.000030
     1.0795      0.000000
     1.0800      0.000000
     1.0805      0.000010
     1.0810      0.000000
     1.0815      0.000000
     1.0820      0.000010
     1.0825      0.000030
     1.0830      0.000060
     1.0835      0.000090
     1.0840      0.000000
     1.0845      0.000020
     1.0850      0.000050
     1.0855      0.000040
     1.0860      0.000090
     1.0865      0.000030
     1.0870      0.000010
     1.0875      0.000030
     1.0880      0.000010
     1.0885      0.000000
     1.0890      0.000000
     1.0895      0.000000
     1.0900      0.000000
     1.0905      0.000010
     1.0910      0.000000
     1.0915      0.000000
     1.0920      0.000090
     1.0925      0.000020
     1.0930      0.000030
     1.0935      0.000090
     1.0940      0.000070
     1.0945      0.000000
     1.0950      0.000000
     1.0955      0.000070
     1.0960      0.000040
     1.0965      0.000010
     1.0970      0.000010
     1.0975      0.000120
     1.0980      0.000030
     1.0985      0.000030
     1.0990      0.000000
     1.0995      0.000050
     1.1000      0.000030
     1.1005      0.000000
     1.1010      0.000050
     1.1015      0.000000
     1.1020      0.000110
     1.1025      0.000090
     1.1030      0.000000
     1.1035      0.000000
     1.1040      0.000030
     1.1045      0.000050
     1.1050      0.000030
     1.1055      0.000000
     1.1060      0.000080
     1.1065      0.000000
     1.1070      0.000000
     1.1075      0.000010
     1.1080      0.000000
     1.1085      0.000070
     1.1090      0.000000
     1.1095      0.000060
     1.1100      0.000040
     1.1105      0.000020
     1.1110      0.000020
     1.1115      0.000620
     1.1120      0.000000
     1.1125      0.000160
     1.1130      0.000000
     1.1135      0.000000
     1.1140      0.000000
     1.1145      0.000000
     1.1150      0.000400
     1.1155      0.001080
     1.1160      0.000000
     1.1165      0.000040
     1.1170      0.000000
     1.1175      0.000400
     1.1180      0.000000
     1.1185      0.000750
     1.1190      0.000820
     1.1195      0.000000
     1.1200      0.001040
     1.1205      0.000000
     1.1210      0.000060
     1.1215      0.000000
     1.1220      0.000060
     1.1225      0.000310
     1.1230      0.000000
     1.1235      0.000000
     1.1240      0.000000
     1.1245      0.000600
     1.1250      0.000000
     1.1255      0.000000
     1.1260      0.000000
     1.1265      0.000000
     1.1270      0.000000
     1.1275      0.000190
     1.1280      0.000750
     1.1285      0.000000
     1.1290      0.001390
     1.1295      0.001260
     1.1300      0.000110
     1.1305      0.000000
     1.1310      0.001070
     1.1315      0.000000
     1.1320      0.000000
     1.1325      0.000370
     1.1330      0.000480
     1.1335      0.000100
     1.1340      0.000070
     1.1345      0.000490
     1.1350      0.000000
     1.1355      0.000000
     1.1360      0.000000
     1.1365      0.000830
     1.1370      0.000770
     1.1375      0.000000
     1.1380      0.000200
     1.1385      0.000000
     1.1390      0.001660
     1.1395      0.000140
     1.1400      0.000820
     1.1405      0.000000
     1.1410      0.000000
     1.1415      0.000270
     1.1420      0.000460
     1.1425      0.001210
     1.1430      0.000630
     1.1435      0.000000
     1.1440      0.000950
     1.1445      0.000000
     1.1450      0.000000
     1.1455      0.000570
     1.1460      0.000840
     1.1465      0.000000
     1.1470      0.000240
     1.1475      0.000000
     1.1480      0.000000
     1.1485      0.001590
     1.1490      0.000020
     1.1495      0.000000
     1.1500      0.000000
     1.1505      0.000000
     1.1510      0.001390
     1.1515      0.000740
     1.1520      0.000050
     1.1525      0.000710
     1.1530      0.000830
     1.1535      0.000000
     1.1540      0.000000
     1.1545      0.000480
     1.1550      0.000070
     1.1555      0.000170
     1.1560      0.001650
     1.1565      0.001470
     1.1570      0.000850
     1.1575      0.000000
     1.1580      0.001010
     1.1585      0.000000
     1.1590      0.000000
     1.1595      0.000540
     1.1600      0.000000
     1.1605      0.000000
     1.1610      0.000060
     1.1615      0.000150
     1.1620      0.000220
     1.1625      0.001550
     1.1630      0.000570
     1.1635      0.000000
     1.1640      0.000000
     1.1645      0.000000
     1.1650      0.000000
     1.1655      0.000000
     1.1660      0.001230
     1.1665      0.000600
     1.1670      0.000000
     1.1675      0.000390
     1.1680      0.001020
     1.1685      0.000000
     1.1690      0.000000
     1.1695      0.002070
     1.1700      0.000230
     1.1705      0.001190
     1.1710      0.000000
     1.1715      0.000010
     1.1720      0.001190
     1.1725      0.000000
     1.1730      0.000060
     1.1735      0.000000
     1.1740      0.000160
     1.1745      0.000000
     1.1750      0.000010
     1.1755      0.001800
     1.1760      0.000000
     1.1765      0.000000
     1.1770      0.000940
     1.1775      0.000000
     1.1780      0.001270
     1.1785      0.000130
     1.1790      0.000000
     1.1795      0.000120
     1.1800      0.000310
     1.1805      0.000000
     1.1810      0.000100
     1.1815      0.000580
     1.1820      0.000000
     1.1825      0.000000
     1.1830      0.001490
     1.1835      0.000000
     1.1840      0.001130
     1.1845      0.000820
     1.1850      0.000880
     1.1855      0.000420
     1.1860      0.000150
     1.1865      0.000070
     1.1870      0.000000
     1.1875      0.000640
     1.1880      0.000150
     1.1885      0.002080
     1.1890      0.000000
     1.1895      0.000000
     1.1900      0.000820
     1.1905      0.000020
     1.1910      0.000340
     1.1915      0.000000
     1.1920      0.001970
     1.1925      0.000270
     1.1930      0.000000
     1.1935      0.000050
     1.1940      0.000860
     1.1945      0.000000
     1.1950      0.002010
     1.1955      0.000380
     1.1960      0.000000
     1.1965      0.001170
     1.1970      0.000590
     1.1975      0.000170
     1.1980      0.000000
     1.1985      0.000040
     1.1990      0.000030
     1.1995      0.000780
     1.2000      0.001340
     1.2005      0.000270
     1.2010      0.000430
     1.2015      0.000000
     1.2020      0.000450
     1.2025      0.000240
     1.2030      0.000000
     1.2035      0.000570
     1.2040      0.000220
     1.2045      0.000890
     1.2050      0.000630
     1.2055      0.000180
     1.2060      0.001080
     1.2065      0.000790
     1.2070      0.001570
     1.2075      0.000560
     1.2080      0.001120
     1.2085      0.000000
     1.2090      0.000000
     1.2095      0.000010
     1.2100      0.000850
     1.2105      0.000280
     1.2110      0.000000
     1.2115      0.001220
     1.2120      0.000930
     1.2125      0.000380
     1.2130      0.000000
     1.2135      0.001120
     1.2140      0.000480
     1.2145      0.000000
     1.2150      0.000000
     1.2155      0.000000
     1.2160      0.000050
     1.2165      0.000730
     1.2170      0.000620
     1.2175      0.000780
     1.2180      0.000590
     1.2185      0.000710
     1.2190      0.001130
     1.2195      0.000290
     1.2200      0.000420
     1.2205      0.000000
     1.2210      0.000000
     1.2215      0.000000
     1.2220      0.000000
     1.2225      0.000990
     1.2230      0.000650
     1.2235      0.000480
     1.2240      0.000000
     1.2245      0.000490
     1.2250      0.000340
     1.2255      0.000000
     1.2260      0.000000
     1.2265      0.000000
     1.2270      0.000170
     1.2275      0.000000
     1.2280      0.000820
     1.2285      0.000810
     1.2290      0.002990
     1.2295      0.001280
     1.2300      0.000460
     1.2305      0.000830
     1.2310      0.000180
     1.2315      0.000150
     1.2320      0.000290
     1.2325      0.001190
     1.2330      0.000000
     1.2335      0.000000
     1.2340      0.000060
     1.2345      0.000800
     1.2350      0.000160
     1.2355      0.000480
     1.2360      0.000210
     1.2365      0.000000
     1.2370      0.000030
     1.2375      0.000000
     1.2380      0.000040
     1.2385      0.000940
     1.2390      0.000000
     1.2395      0.000230
     1.2400      0.000840
     1.2405      0.000040
     1.2410      0.000000
     1.2415      0.000000
     1.2420      0.001390
     1.2425      0.001510
     1.2430      0.000500
     1.2435      0.000600
     1.2440      0.000190
     1.2445      0.000030
     1.2450      0.000360
     1.2455      0.000110
     1.2460      0.000710
     1.2465      0.001660
     1.2470      0.000510
     1.2475      0.000200
     1.2480      0.000280
     1.2485      0.000270
     1.2490      0.000000
     1.2495      0.000560
     1.2500      0.000000
     1.2505      0.000000
     1.2510      0.000220
     1.2515      0.000120
     1.2520      0.000000
     1.2525      0.000000
     1.2530      0.001190
     1.2535      0.000040
     1.2540      0.001040
     1.2545      0.000700
     1.2550      0.000600
     1.2555      0.000000
     1.2560      0.000160
     1.2565      0.000630
     1.2570      0.000050
     1.2575      0.002160
     1.2580      0.000100
     1.2585      0.000160
     1.2590      0.000240
     1.2595      0.000550
     1.2600      0.001400
     1.2605      0.001590
     1.2610      0.000540
     1.2615      0.001460
     1.2620      0.000570
     1.2625      0.000700
     1.2630      0.000140
     1.2635      0.001620
     1.2640      0.000720
     1.2645      0.001690
     1.2650      0.000560
     1.2655      0.001000
     1.2660      0.001420
     1.2665      0.001020
     1.2670      0.000970
     1.2675      0.000250
     1.2680      0.001260
     1.2685      0.000790
     1.2690      0.000000
     1.2695      0.000930
     1.2700      0.000310
     1.2705      0.001380
     1.2710      0.001150
     1.2715      0.000000
     1.2720      0.001030
     1.2725      0.000380
     1.2730      0.000690
     1.2735      0.000070
     1.2740      0.000560
     1.2745      0.000080
     1.2750      0.000760
     1.2755      0.000000
     1.2760      0.000000
     1.2765      0.000040
     1.2770      0.000000
     1.2775      0.000530
     1.2780      0.000980
     1.2785      0.000420
     1.2790      0.000770
     1.2795      0.000000
     1.2800      0.000170
     1.2805      0.000040
     1.2810      0.001160
     1.2815      0.001550
     1.2820      0.001150
     1.2825      0.001650
     1.2830      0.000000
     1.2835      0.000580
     1.2840      0.000350
     1.2845      0.000040
     1.2850      0.000170
     1.2855      0.000000
     1.2860      0.000000
     1.2865      0.000000
     1.2870      0.000650
     1.2875      0.000690
     1.2880      0.001170
     1.2885      0.000910
     1.2890      0.001350
     1.2895      0.000210
     1.2900      0.000580
     1.2905      0.000010
     1.2910      0.000000
     1.2915      0.000260
     1.2920      0.000000
     1.2925      0.000530
     1.2930      0.000900
     1.2935      0.000880
     1.2940      0.001120
     1.2945      0.000310
     1.2950      0.000290
     1.2955      0.001090
     1.2960      0.000100
     1.2965      0.000270
     1.2970      0.000310
     1.2975      0.000500
     1.2980      0.000830
     1.2985      0.000000
     1.2990      0.000740
     1.2995      0.000050
     1.3000      0.000000
     1.3005      0.001270
     1.3010      0.000030
     1.3015      0.000000
     1.3020      0.000000
     1.3025      0.000480
     1.3030      0.000000
     1.3035      0.000110
     1.3040      0.000000
     1.3045      0.000000
     1.3050      0.000020
     1.3055      0.000100
     1.3060      0.001140
     1.3065      0.000020
     1.3070      0.000000
     1.3075      0.000000
     1.3080      0.000000
     1.3085      0.000200
     1.3090      0.001690
     1.3095      0.000200
     1.3100      0.000440
     1.3105      0.000200
     1.3110      0.000000
     1.3115      0.000740
     1.3120      0.000320
     1.3125      0.000070
     1.3130      0.000000
     1.3135      0.000000
     1.3140      0.000130
     1.3145      0.000000
     1.3150      0.001000
     1.3155      0.000000
     1.3160      0.000000
     1.3165      0.000000
     1.3170      0.000390
     1.3175      0.000610
     1.3180      0.000040
     1.3185      0.000420
     1.3190      0.000280
     1.3195      0.000000
     1.3200      0.000000
     1.3205      0.000230
     1.3210      0.000000
     1.3215      0.000120
     1.3220      0.000100
     1.3225      0.000000
     1.3230      0.000000
     1.3235      0.000310
     1.3240      0.000290
     1.3245      0.000060
     1.3250      0.000060
     1.3255      0.000360
     1.3260      0.000560
     1.3265      0.000170
     1.3270      0.000660
     1.3275      0.000600
     1.3280      0.000030
     1.3285      0.000360
     1.3290      0.000000
     1.3295      0.000000
     1.3300      0.000000
     1.3305      0.000290
     1.3310      0.000000
     1.3315      0.000930
     1.3320      0.000250
     1.3325      0.000000
     1.3330      0.000070
     1.3335      0.000000
     1.3340      0.000300
     1.3345      0.000000
     1.3350      0.000160
     1.3355      0.000490
     1.3360      0.000000
     1.3365      0.000030
     1.3370      0.000000
     1.3375      0.000620
     1.3380      0.000490
     1.3385      0.000000
     1.3390      0.000010
     1.3395      0.000000
     1.3400      0.000110
     1.3405      0.000040
     1.3410      0.000000
     1.3415      0.000980
     1.3420      0.000000
     1.3425      0.000000
     1.3430      0.000000
     1.3435      0.000070
     1.3440      0.000000
     1.3445      0.000000
     1.3450      0.000000
     1.3455      0.000000
     1.3460      0.000000
     1.3465      0.000030
     1.3470      0.000040
     1.3475      0.000000
     1.3480      0.000060
     1.3485      0.000000
     1.3490      0.000000
     1.3495      0.000000
     1.3500      0.000670
     1.3505      0.000000
     1.3510      0.000000
     1.3515      0.000000
     1.3520      0.000000
     1.3525      0.000080
     1.3530      0.000000
     1.3535      0.000000
     1.3540      0.000000
     1.3545      0.000770
     1.3550      0.000000
     1.3555      0.000000
     1.3560      0.000000
     1.3565      0.000000
     1.3570      0.000660
     1.3575      0.000040
     1.3580      0.000000
     1.3585      0.000310
     1.3590      0.000000
     1.3595      0.000000
     1.3600      0.000500
     1.3605      0.000000
     1.3610      0.000000
     1.3615      0.000000
     1.3620      0.000500
     1.3625      0.000000
     1.3630      0.000000
     1.3635      0.000140
     1.3640      0.000670
     1.3645      0.000070
     1.3650      0.000000
     1.3655      0.000000
     1.3660      0.000330
     1.3665      0.000010
     1.3670      0.000000
     1.3675      0.000390
     1.3680      0.000000
     1.3685      0.000010
     1.3690      0.000430
     1.3695      0.000000
     1.3700      0.000000
     1.3705      0.000000
     1.3710      0.000070
     1.3715      0.000000
     1.3720      0.000010
     1.3725      0.000130
     1.3730      0.000000
     1.3735      0.000000
     1.3740      0.000080
     1.3745      0.000370
     1.3750      0.000090
     1.3755      0.000200
     1.3760      0.000330
     1.3765      0.000750
     1.3770      0.000000
     1.3775      0.000520
     1.3780      0.000580
     1.3785      0.000000
     1.3790      0.000920
     1.3795      0.000000
     1.3800      0.000000
     1.3805      0.000000
     1.3810      0.000180
     1.3815      0.000210
     1.3820      0.000300
     1.3825      0.000320
     1.3830      0.000110
     1.3835      0.000030
     1.3840      0.000000
     1.3845      0.000390
     1.3850      0.000080
     1.3855      0.000000
     1.3860      0.000000
     1.3865      0.000380
     1.3870      0.001260
     1.3875      0.000000
     1.3880      0.000080
     1.3885      0.000000
     1.3890      0.000080
     1.3895      0.000300
     1.3900      0.000590
     1.3905      0.000220
     1.3910      0.000000
     1.3915      0.000000
     1.3920      0.000050
     1.3925      0.000670
     1.3930      0.000000
     1.3935      0.000740
     1.3940      0.000720
     1.3945      0.000950
     1.3950      0.000730
     1.3955      0.000020
     1.3960      0.000000
     1.3965      0.000000
     1.3970      0.000300
     1.3975      0.000560
     1.3980      0.000590
     1.3985      0.000230
     1.3990      0.000460
     1.3995      0.001230
     1.4000      0.000070
     1.4005      0.000020
     1.4010      0.000000
     1.4015      0.000000
     1.4020      0.000000
     1.4025      0.000140
     1.4030      0.000310
     1.4035      0.000410
     1.4040      0.000270
     1.4045      0.000490
     1.4050      0.000710
     1.4055      0.000260
     1.4060      0.000000
     1.4065      0.000240
     1.4070      0.000950
     1.4075      0.000010
     1.4080      0.000860
     1.4085      0.000550
     1.4090      0.000900
     1.4095      0.000390
     1.4100      0.000610
     1.4105      0.000040
     1.4110      0.000040
     1.4115      0.000490
     1.4120      0.000000
     1.4125      0.000810
     1.4130      0.000550
     1.4135      0.000000
     1.4140      0.000710
     1.4145      0.000200
     1.4150      0.000000
     1.4155      0.000000
     1.4160      0.000000
     1.4165      0.000220
     1.4170      0.000720
     1.4175      0.000030
     1.4180      0.000630
     1.4185      0.001250
     1.4190      0.000770
     1.4195      0.001260
     1.4200      0.000880
     1.4205      0.000140
     1.4210      0.000990
     1.4215      0.000510
     1.4220      0.000010
     1.4225      0.000560
     1.4230      0.001150
     1.4235      0.001480
     1.4240      0.000910
     1.4245      0.001340
     1.4250      0.000380
     1.4255      0.000650
     1.4260      0.001040
     1.4265      0.000030
     1.4270      0.000580
     1.4275      0.000690
     1.4280      0.001340
     1.4285      0.000490
     1.4290      0.000040
     1.4295      0.000910
     1.4300      0.000250
     1.4305      0.000200
     1.4310      0.000490
     1.4315      0.000570
     1.4320      0.000460
     1.4325      0.000290
     1.4330      0.001290
     1.4335      0.000460
     1.4340      0.000070
     1.4345      0.000680
     1.4350      0.001160
     1.4355      0.000000
     1.4360      0.000630
     1.4365      0.000990
     1.4370      0.000420
     1.4375      0.001070
     1.4380      0.000360
     1.4385      0.000480
     1.4390      0.000540
     1.4395      0.001320
     1.4400      0.001030
     1.4405      0.001070
     1.4410      0.000000
     1.4415      0.000670
     1.4420      0.000440
     1.4425      0.000510
     1.4430      0.000640
     1.4435      0.000720
     1.4440      0.000610
     1.4445      0.000460
     1.4450      0.001070
     1.4455      0.001310
     1.4460      0.000040
     1.4465      0.001320
     1.4470      0.000930
     1.4475      0.001120
     1.4480      0.000920
     1.4485      0.001120
     1.4490      0.001580
     1.4495      0.001040
     1.4500      0.001130
     1.4505      0.001660
     1.4510      0.002480
     1.4515      0.001030
     1.4520      0.001220
     1.4525      0.001290
     1.4530      0.002200
     1.4535      0.001550
     1.4540      0.002320
     1.4545      0.001780
     1.4550      0.001890
     1.4555      0.001750
     1.4560      0.002180
     1.4565      0.001800
     1.4570      0.002130
     1.4575      0.002680
     1.4580      0.002640
     1.4585      0.004320
     1.4590      0.003840
     1.4595      0.004170
     1.4600      0.004630
     1.4605      0.005970
     1.4610      0.005000
     1.4615      0.005580
     1.4620      0.006260
     1.4625      0.006660
     1.4630      0.007380
     1.4635      0.008130
     1.4640      0.008950
     1.4645      0.009830
     1.4650      0.011080
     1.4655      0.013380
     1.4660      0.013950
     1.4665      0.015490
     1.4670      0.018410
     1.4675      0.019890
     1.4680      0.022150
     1.4685      0.025120
     1.4690      0.028840
     1.4695      0.033020
     1.4700      0.038760
     1.4705      0.043880
     1.4710      0.049660
     1.4715      0.057350
     1.4720      0.067120
     1.4725      0.077230
     1.4730      0.089910
     1.4735      0.104920
     1.4740      0.122380
     1.4745      0.142810
     1.4750      0.167130
     1.4755      0.195720
     1.4760      0.229720
     1.4765      0.268000
     1.4770      0.311070
     1.4775      0.359430
     1.4780      0.412090
     1.4785      0.469100
     1.4790      0.527920
     1.4795      0.588540
     1.4800      0.648600
     1.4805      0.703810
     1.4810      0.753770
     1.4815      0.798120
     1.4820      0.835680
     1.4825      0.866260
     1.4830      0.887070
     1.4835      0.901940
     1.4840      0.912540
     1.4845      0.920510
     1.4850      0.922530
     1.4855      0.923970
     1.4860      0.923290
     1.4865      0.921900
     1.4870      0.919610
     1.4875      0.917920
     1.4880      0.915600
     1.4885      0.913360
     1.4890      0.913040
     1.4895      0.912160
     1.4900      0.910580
     1.4905      0.909870
     1.4910      0.912010
     1.4915      0.911920
     1.4920      0.912130
     1.4925      0.914610
     1.4930      0.914510
     1.4935      0.918070
     1.4940      0.919150
     1.4945      0.920830
     1.4950      0.922180
     1.4955      0.924970
     1.4960      0.926800
     1.4965      0.928080
     1.4970      0.929350
     1.4975      0.931980
     1.4980      0.932070
     1.4985      0.933800
     1.4990      0.934430
     1.4995      0.936360
     1.5000      0.936100
     1.5005      0.934960
     1.5010      0.936280
     1.5015      0.936630
     1.5020      0.938210
     1.5025      0.938140
     1.5030      0.938820
     1.5035      0.938840
     1.5040      0.938660
     1.5045      0.937600
     1.5050      0.938740
     1.5055      0.939620
     1.5060      0.938530
     1.5065      0.939410
     1.5070      0.939810
     1.5075      0.940510
     1.5080      0.940810
     1.5085      0.941380
     1.5090      0.940600
     1.5095      0.940600
     1.5100      0.941020
     1.5105      0.941600
     1.5110      0.942230
     1.5115      0.940050
     1.5120      0.940860
     1.5125      0.941600
     1.5130      0.941500
     1.5135      0.941540
     1.5140      0.941920
     1.5145      0.941780
     1.5150      0.942680
     1.5155      0.942440
     1.5160      0.941850
     1.5165      0.942340
     1.5170      0.942620
     1.5175      0.941820
     1.5180      0.941920
     1.5185      0.942800
     1.5190      0.942520
     1.5195      0.941740
     1.5200      0.940840
     1.5205      0.940240
     1.5210      0.940610
     1.5215      0.941650
     1.5220      0.940610
     1.5225      0.940800
     1.5230      0.941920
     1.5235      0.939930
     1.5240      0.939640
     1.5245      0.940340
     1.5250      0.940390
     1.5255      0.940570
     1.5260      0.940870
     1.5265      0.941060
     1.5270      0.940040
     1.5275      0.939140
     1.5280      0.939140
     1.5285      0.940000
     1.5290      0.939840
     1.5295      0.938610
     1.5300      0.939570
     1.5305      0.939080
     1.5310      0.939100
     1.5315      0.939720
     1.5320      0.938850
     1.5325      0.938180
     1.5330      0.938370
     1.5335      0.938580
     1.5340      0.938780
     1.5345      0.939040
     1.5350      0.938970
     1.5355      0.938540
     1.5360      0.938360
     1.5365      0.937590
     1.5370      0.937690
     1.5375      0.938380
     1.5380      0.937230
     1.5385      0.937200
     1.5390      0.937710
     1.5395      0.937270
     1.5400      0.937670
     1.5405      0.936860
     1.5410      0.936450
     1.5415      0.937240
     1.5420      0.937730
     1.5425      0.936290
     1.5430      0.935990
     1.5435      0.936940
     1.5440      0.937570
     1.5445      0.937370
     1.5450      0.938460
     1.5455      0.937790
     1.5460      0.937550
     1.5465      0.937510
     1.5470      0.938590
     1.5475      0.937550
     1.5480      0.938020
     1.5485      0.938860
     1.5490      0.938720
     1.5495      0.937790
     1.5500      0.937680
     1.5505      0.938890
     1.5510      0.938960
     1.5515      0.938300
     1.5520      0.938400
     1.5525      0.939390
     1.5530      0.939000
     1.5535      0.940050
     1.5540      0.940390
     1.5545      0.940510
     1.5550      0.940370
     1.5555      0.941010
     1.5560      0.940390
     1.5565      0.941350
     1.5570      0.941910
     1.5575      0.942470
     1.5580      0.942330
     1.5585      0.942540
     1.5590      0.943000
     1.5595      0.944030
     1.5600      0.943950
     1.5605      0.944160
     1.5610      0.943580
     1.5615      0.944320
     1.5620      0.944010
     1.5625      0.944630
     1.5630      0.945090
     1.5635      0.945050
     1.5640      0.946650
     1.5645      0.945650
     1.5650      0.946020
     1.5655      0.946740
     1.5660      0.946430
     1.5665      0.945500
     1.5670      0.947630
     1.5675      0.946890
     1.5680      0.946250
     1.5685      0.947390
     1.5690      0.948140
     1.5695      0.946970
     1.5700      0.945840
     1.5705      0.946700
     1.5710      0.946040
     1.5715      0.947660
     1.5720      0.947340
     1.5725      0.948610
     1.5730      0.947670
     1.5735      0.948060
     1.5740      0.948020
     1.5745      0.947460
     1.5750      0.947410
     1.5755      0.947780
     1.5760      0.947490
     1.5765      0.947970
     1.5770      0.947880
     1.5775      0.947850
     1.5780      0.948650
     1.5785      0.948190
     1.5790      0.946570
     1.5795      0.947710
     1.5800      0.946920
     1.5805      0.947610
     1.5810      0.947750
     1.5815      0.948030
     1.5820      0.947910
     1.5825      0.947940
     1.5830      0.948190
     1.5835      0.947570
     1.5840      0.947160
     1.5845      0.946310
     1.5850      0.947890
     1.5855      0.947950
     1.5860      0.948000
     1.5865      0.948150
     1.5870      0.947880
     1.5875      0.947100
     1.5880      0.947420
     1.5885      0.947300
     1.5890      0.947850
     1.5895      0.946900
     1.5900      0.947290
     1.5905      0.947520
     1.5910      0.946750
     1.5915      0.947810
     1.5920      0.948560
     1.5925      0.946860
     1.5930      0.947000
     1.5935      0.947600
     1.5940      0.947290
     1.5945      0.946620
     1.5950      0.947330
     1.5955      0.947140
     1.5960      0.948570
     1.5965      0.948100
     1.5970      0.947790
     1.5975      0.947390
     1.5980      0.948330
     1.5985      0.948770
     1.5990      0.948120
     1.5995      0.947210
     1.6000      0.948140
     1.6005      0.948700
     1.6010      0.948150
     1.6015      0.948380
     1.6020      0.948410
     1.6025      0.948600
     1.6030      0.948900
     1.6035      0.948960
     1.6040      0.948640
     1.6045      0.948600
     1.6050      0.948950
     1.6055      0.949670
     1.6060      0.949490
     1.6065      0.949830
     1.6070      0.950070
     1.6075      0.950120
     1.6080      0.950520
     1.6085      0.950100
     1.6090      0.950340
     1.6095      0.951270
     1.6100      0.951590
     1.6105      0.950570
     1.6110      0.951270
     1.6115      0.951780
     1.6120      0.952150
     1.6125      0.951330
     1.6130      0.951610
     1.6135      0.952180
     1.6140      0.952230
     1.6145      0.952640
     1.6150      0.952840
     1.6155      0.952690
     1.6160      0.951980
     1.6165      0.952980
     1.6170      0.952230
     1.6175      0.952550
     1.6180      0.952360
     1.6185      0.952550
     1.6190      0.952930
     1.6195      0.952090
     1.6200      0.952600
     1.6205      0.951340
     1.6210      0.951660
     1.6215      0.952080
     1.6220      0.951550
     1.6225      0.951560
     1.6230      0.951990
     1.6235      0.951150
     1.6240      0.950940
     1.6245      0.951050
     1.6250      0.951360
     1.6255      0.949700
     1.6260      0.948920
     1.6265      0.948400
     1.6270      0.949830
     1.6275      0.949030
     1.6280      0.948400
     1.6285      0.948440
     1.6290      0.948460
     1.6295      0.948270
     1.6300      0.947770
     1.6305      0.947580
     1.6310      0.947410
     1.6315      0.946750
     1.6320      0.947240
     1.6325      0.946510
     1.6330      0.945660
     1.6335      0.946070
     1.6340      0.946660
     1.6345      0.945360
     1.6350      0.944830
     1.6355      0.945680
     1.6360      0.946640
     1.6365      0.946180
     1.6370      0.946050
     1.6375      0.945040
     1.6380      0.945200
     1.6385      0.944760
     1.6390      0.946240
     1.6395      0.946320
     1.6400      0.945600
     1.6405      0.944780
     1.6410      0.946080
     1.6415      0.946060
     1.6420      0.945360
     1.6425      0.946280
     1.6430      0.945380
     1.6435      0.945140
     1.6440      0.945150
     1.6445      0.945730
     1.6450      0.945660
     1.6455      0.946370
     1.6460      0.946760
     1.6465      0.947110
     1.6470      0.946450
     1.6475      0.946520
     1.6480      0.946460
     1.6485      0.947420
     1.6490      0.947900
     1.6495      0.948130
     1.6500      0.946770
     1.6505      0.946770
     1.6510      0.946860
     1.6515      0.948070
     1.6520      0.948200
     1.6525      0.948130
     1.6530      0.947360
     1.6535      0.947540
     1.6540      0.948200
     1.6545      0.948050
     1.6550      0.948480
     1.6555      0.948500
     1.6560      0.948970
     1.6565      0.950050
     1.6570      0.949310
     1.6575      0.950330
     1.6580      0.949930
     1.6585      0.949730
     1.6590      0.950310
     1.6595      0.949480
     1.6600      0.949920
     1.6605      0.950710
     1.6610      0.950210
     1.6615      0.950450
     1.6620      0.950470
     1.6625      0.949820
     1.6630      0.950630
     1.6635      0.951300
     1.6640      0.950780
     1.6645      0.951210
     1.6650      0.951140
     1.6655      0.950810
     1.6660      0.950680
     1.6665      0.952110
     1.6670      0.952100
     1.6675      0.952640
     1.6680      0.953170
     1.6685      0.953240
     1.6690      0.952650
     1.6695      0.952550
     1.6700      0.953070
     1.6705      0.952550
     1.6710      0.952630
     1.6715      0.952990
     1.6720      0.953240
     1.6725      0.953330
     1.6730      0.953980
     1.6735      0.954640
     1.6740      0.953970
     1.6745      0.953900
     1.6750      0.954410
     1.6755      0.954110
     1.6760      0.955030
     1.6765      0.955550
     1.6770      0.955350
     1.6775      0.954690
     1.6780      0.955240
     1.6785      0.954680
     1.6790      0.955730
     1.6795      0.955890
     1.6800      0.955720
     1.6805      0.956640
     1.6810      0.955910
     1.6815      0.956380
     1.6820      0.956070
     1.6825      0.956200
     1.6830      0.955940
     1.6835      0.955760
     1.6840      0.955690
     1.6845      0.955620
     1.6850      0.955410
     1.6855      0.956370
     1.6860      0.955510
     1.6865      0.955270
     1.6870      0.954940
     1.6875      0.955480
     1.6880      0.955570
     1.6885      0.954820
     1.6890      0.954250
     1.6895      0.954110
     1.6900      0.954400
     1.6905      0.953830
     1.6910      0.954610
     1.6915      0.953480
     1.6920      0.953190
     1.6925      0.953480
     1.6930      0.954120
     1.6935      0.953350
     1.6940      0.952450
     1.6945      0.952350
     1.6950      0.953290
     1.6955      0.953280
     1.6960      0.952470
     1.6965      0.952500
     1.6970      0.951860
     1.6975      0.952370
     1.6980      0.951990
     1.6985      0.951620
     1.6990      0.952430
     1.6995      0.951750
     1.7000      0.952390
     1.7005      0.952320
     1.7010      0.951970
     1.7015      0.951710
     1.7020      0.951630
     1.7025      0.951910
     1.7030      0.952410
     1.7035      0.951780
     1.7040      0.951830
     1.7045      0.951470
     1.7050      0.951970
     1.7055      0.951770
     1.7060      0.951620
     1.7065      0.951470
     1.7070      0.952920
     1.7075      0.952660
     1.7080      0.952270
     1.7085      0.952910
     1.7090      0.953640
     1.7095      0.953240
     1.7100      0.952290
     1.7105      0.952090
     1.7110      0.952080
     1.7115      0.952810
     1.7120      0.953250
     1.7125      0.953120
     1.7130      0.953390
     1.7135      0.953660
     1.7140      0.953770
     1.7145      0.953540
     1.7150      0.952300
     1.7155      0.952690
     1.7160      0.953250
     1.7165      0.953250
     1.7170      0.953570
     1.7175      0.952150
     1.7180      0.952510
     1.7185      0.952530
     1.7190      0.951940
     1.7195      0.951880
     1.7200      0.952540
     1.7205      0.952470
     1.7210      0.951720
     1.7215      0.951140
     1.7220      0.951550
     1.7225      0.951720
     1.7230      0.951280
     1.7235      0.950910
     1.7240      0.950310
     1.7245      0.949510
     1.7250      0.949900
     1.7255      0.949480
     1.7260      0.949090
     1.7265      0.948900
     1.7270      0.949310
     1.7275      0.948700
     1.7280      0.948650
     1.7285      0.949080
     1.7290      0.949930
     1.7295      0.948450
     1.7300      0.948450
     1.7305      0.948720
     1.7310      0.949980
     1.7315      0.949500
     1.7320      0.949120
     1.7325      0.949190
     1.7330      0.948610
     1.7335      0.949370
     1.7340      0.950410
     1.7345      0.951310
     1.7350      0.951150
     1.7355      0.951060
     1.7360      0.951300
     1.7365      0.950920
     1.7370      0.951340
     1.7375      0.951750
     1.7380      0.951690
     1.7385      0.952600
     1.7390      0.952100
     1.7395      0.952140
     1.7400      0.953290
     1.7405      0.953160
     1.7410      0.953460
     1.7415      0.954170
     1.7420      0.954400
     1.7425      0.954100
     1.7430      0.954950
     1.7435      0.955210
     1.7440      0.954950
     1.7445      0.955670
     1.7450      0.955710
     1.7455      0.956800
     1.7460      0.956800
     1.7465      0.956740
     1.7470      0.956860
     1.7475      0.957160
     1.7480      0.957610
     1.7485      0.958730
     1.7490      0.958570
     1.7495      0.957930
     1.7500      0.957810
     1.7505      0.958270
     1.7510      0.957930
     1.7515      0.958450
     1.7520      0.959030
     1.7525      0.958230
     1.7530      0.958810
     1.7535      0.958710
     1.7540      0.958560
     1.7545      0.958310
     1.7550      0.958590
     1.7555      0.958640
     1.7560      0.958640
     1.7565      0.958540
     1.7570      0.958780
     1.7575      0.958220
     1.7580      0.957850
     1.7585      0.957910
     1.7590      0.958220
     1.7595      0.957360
     1.7600      0.957100
     1.7605      0.956120
     1.7610      0.955820
     1.7615      0.955580
     1.7620      0.954050
     1.7625      0.953390
     1.7630      0.952900
     1.7635      0.951650
     1.7640      0.950560
     1.7645      0.949950
     1.7650      0.949280
     1.7655      0.946970
     1.7660      0.944980
     1.7665      0.943620
     1.7670      0.941960
     1.7675      0.939540
     1.7680      0.936370
     1.7685      0.934190
     1.7690      0.932850
     1.7695      0.930680
     1.7700      0.928460
     1.7705      0.926400
     1.7710      0.923840
     1.7715      0.920810
     1.7720      0.918410
     1.7725      0.915920
     1.7730      0.913490
     1.7735      0.912050
     1.7740      0.910990
     1.7745      0.909580
     1.7750      0.907590
     1.7755      0.907200
     1.7760      0.906240
     1.7765      0.906070
     1.7770      0.907010
     1.7775      0.906630
     1.7780      0.907600
     1.7785      0.909190
     1.7790      0.910110
     1.7795      0.911830
     1.7800      0.914430
     1.7805      0.916760
     1.7810      0.918150
     1.7815      0.919580
     1.7820      0.919900
     1.7825      0.918670
     1.7830      0.916500
     1.7835      0.912760
     1.7840      0.904950
     1.7845      0.894490
     1.7850      0.880980
     1.7855      0.862550
     1.7860      0.839830
     1.7865      0.812230
     1.7870      0.779200
     1.7875      0.742050
     1.7880      0.700290
     1.7885      0.656000
     1.7890      0.608310
     1.7895      0.559960
     1.7900      0.510720
     1.7905      0.462830
     1.7910      0.417180
     1.7915      0.373820
     1.7920      0.332970
     1.7925      0.295800
     1.7930      0.261980
     1.7935      0.231560
     1.7940      0.203790
     1.7945      0.179470
     1.7950      0.158200
     1.7955      0.138420
     1.7960      0.122410
     1.7965      0.108220
     1.7970      0.095480
     1.7975      0.084420
     1.7980      0.074670
     1.7985      0.066160
     1.7990      0.059120
     1.7995      0.053450
     1.8000      0.047470
     1.8005      0.042310
     1.8010      0.038020
     1.8015      0.034800
     1.8020      0.031130
     1.8025      0.027590
     1.8030      0.024850
     1.8035      0.022610
     1.8040      0.020460
     1.8045      0.018590
     1.8050      0.017440
     1.8055      0.015740
     1.8060      0.014710
     1.8065      0.013650
     1.8070      0.012310
     1.8075      0.011040
     1.8080      0.010270
     1.8085      0.009810
     1.8090      0.009650
     1.8095      0.008790
     1.8100      0.008260
     1.8105      0.007150
     1.8110      0.006680
     1.8115      0.006190
     1.8120      0.005920
     1.8125      0.006340
     1.8130      0.005780
     1.8135      0.004460
     1.8140      0.004020
     1.8145      0.004210
     1.8150      0.004200
     1.8155      0.004080
     1.8160      0.004400
     1.8165      0.003940
     1.8170      0.002980
     1.8175      0.002960
     1.8180      0.003330
     1.8185      0.003570
     1.8190      0.003280
     1.8195      0.003700
     1.8200      0.003770
     1.8205      0.003160
     1.8210      0.003050
     1.8215      0.002910
     1.8220      0.002040
     1.8225      0.001460
     1.8230      0.001250
     1.8235      0.001610
     1.8240      0.002260
     1.8245      0.001830
     1.8250      0.001610
     1.8255      0.001640
     1.8260      0.002100
     1.8265      0.002090
     1.8270      0.001440
     1.8275      0.000920
     1.8280      0.001010
     1.8285      0.001500
     1.8290      0.001060
     1.8295      0.001310
     1.8300      0.001050
     1.8305      0.001430
     1.8310      0.001840
     1.8315      0.001020
     1.8320      0.001210
     1.8325      0.001120
     1.8330      0.001260
     1.8335      0.001500
     1.8340      0.002170
     1.8345      0.001660
     1.8350      0.001410
     1.8355      0.001210
     1.8360      0.001070
     1.8365      0.001840
     1.8370      0.001630
     1.8375      0.000980
     1.8380      0.000700
     1.8385      0.000910
     1.8390      0.001010
     1.8395      0.001020
     1.8400      0.001060
     1.8405      0.000890
     1.8410      0.001090
     1.8415      0.000860
     1.8420      0.000670
     1.8425      0.000730
     1.8430      0.001170
     1.8435      0.001180
     1.8440      0.000920
     1.8445      0.000410
     1.8450      0.000560
     1.8455      0.001000
     1.8460      0.000960
     1.8465      0.000910
     1.8470      0.000220
     1.8475      0.000080
     1.8480      0.000240
     1.8485      0.000130
     1.8490      0.000010
     1.8495      0.000140
     1.8500      0.000000
     1.8505      0.000000
     1.8510      0.000010
     1.8515      0.000160
     1.8520      0.000000
     1.8525      0.000340
     1.8530      0.000870
     1.8535      0.000290
     1.8540      0.000000
     1.8545      0.000000
     1.8550      0.000060
     1.8555      0.000370
     1.8560      0.000490
     1.8565      0.000950
     1.8570      0.000640
     1.8575      0.000590
     1.8580      0.000880
     1.8585      0.000180
     1.8590      0.000080
     1.8595      0.000330
     1.8600      0.000560
     1.8605      0.000590
     1.8610      0.000250
     1.8615      0.000800
     1.8620      0.000590
     1.8625      0.000000
     1.8630      0.000010
     1.8635      0.000480
     1.8640      0.000800
     1.8645      0.000310
     1.8650      0.000260
     1.8655      0.000650
     1.8660      0.000740
     1.8665      0.000740
     1.8670      0.000700
     1.8675      0.000410
     1.8680      0.001150
     1.8685      0.000390
     1.8690      0.000350
     1.8695      0.000240
     1.8700      0.000500
     1.8705      0.000730
     1.8710      0.001050
     1.8715      0.001080
     1.8720      0.000510
     1.8725      0.000960
     1.8730      0.000580
     1.8735      0.000000
     1.8740      0.000000
     1.8745      0.000140
     1.8750      0.000370
     1.8755      0.000630
     1.8760      0.000070
     1.8765      0.000000
     1.8770      0.000180
     1.8775      0.000580
     1.8780      0.000580
     1.8785      0.000200
     1.8790      0.000360
     1.8795      0.000080
     1.8800      0.000090
     1.8805      0.000000
     1.8810      0.000000
     1.8815      0.000000
     1.8820      0.000000
     1.8825      0.000000
     1.8830      0.000000
     1.8835      0.000100
     1.8840      0.000370
     1.8845      0.000130
     1.8850      0.000230
     1.8855      0.000260
     1.8860      0.000140
     1.8865      0.000470
     1.8870      0.000000
     1.8875      0.000030
     1.8880      0.000170
     1.8885      0.000090
     1.8890      0.000200
     1.8895      0.000410
     1.8900      0.000070
     1.8905      0.000010
     1.8910      0.000080
     1.8915      0.000000
     1.8920      0.000000
     1.8925      0.000000
     1.8930      0.000000
     1.8935      0.000000
     1.8940      0.000140
     1.8945      0.000000
     1.8950      0.000210
     1.8955      0.000200
     1.8960      0.000000
     1.8965      0.000000
     1.8970      0.000000
     1.8975      0.000000
     1.8980      0.000000
     1.8985      0.000000
     1.8990      0.000000
     1.8995      0.000070
     1.9000      0.000060
     1.9005      0.000000
     1.9010      0.000000
     1.9015      0.000000
     1.9020      0.000090
     1.9025      0.000170
     1.9030      0.000060
     1.9035      0.000110
     1.9040      0.000010
     1.9045      0.000110
     1.9050      0.000040
     1.9055      0.000280
     1.9060      0.000030
     1.9065      0.000000
     1.9070      0.000000
     1.9075      0.000120
     1.9080      0.000090
     1.9085      0.000090
     1.9090      0.000070
     1.9095      0.000000
     1.9100      0.000000
     1.9105      0.000000
     1.9110      0.000240
     1.9115      0.000050
     1.9120      0.000360
     1.9125      0.000360
     1.9130      0.000000
     1.9135      0.000020
     1.9140      0.000000
     1.9145      0.000000
     1.9150      0.000210
     1.9155      0.000100
     1.9160      0.000270
     1.9165      0.000400
     1.9170      0.000060
     1.9175      0.000200
     1.9180      0.000040
     1.9185      0.000000
     1.9190      0.000000
     1.9195      0.000150
     1.9200      0.000060
     1.9205      0.000000
     1.9210      0.000010
     1.9215      0.000010
     1.9220      0.000010
     1.9225      0.000080
     1.9230      0.000000
     1.9235      0.000230
     1.9240      0.000000
     1.9245      0.000020
     1.9250      0.000040
     1.9255      0.000210
     1.9260      0.000450
     1.9265      0.000350
     1.9270      0.000190
     1.9275      0.000000
     1.9280      0.000340
     1.9285      0.000410
     1.9290      0.000310
     1.9295      0.000270
     1.9300      0.000070
     1.9305      0.000500
     1.9310      0.000420
     1.9315      0.000060
     1.9320      0.000000
     1.9325      0.000000
     1.9330      0.000000
     1.9335      0.000000
     1.9340      0.000060
     1.9345      0.000010
     1.9350      0.000020
     1.9355      0.000020
     1.9360      0.000000
     1.9365      0.000000
     1.9370      0.000250
     1.9375      0.000070
     1.9380      0.000070
     1.9385      0.000600
     1.9390      0.000250
     1.9395      0.000000
     1.9400      0.000020
     1.9405      0.000170
     1.9410      0.000020
     1.9415      0.000000
     1.9420      0.000050
     1.9425      0.000150
     1.9430      0.000310
     1.9435      0.000640
     1.9440      0.000450
     1.9445      0.000290
     1.9450      0.000010
     1.9455      0.000000
     1.9460      0.000000
     1.9465      0.000000
     1.9470      0.000010
     1.9475      0.000000
     1.9480      0.000000
     1.9485      0.000120
     1.9490      0.000330
     1.9495      0.000230
     1.9500      0.000170
     1.9505      0.000640
     1.9510      0.000280
     1.9515      0.000000
     1.9520      0.000160
     1.9525      0.000070
     1.9530      0.000140
     1.9535      0.000000
     1.9540      0.000000
     1.9545      0.000000
     1.9550      0.000010
     1.9555      0.000080
     1.9560      0.000030
     1.9565      0.000000
     1.9570      0.000000
     1.9575      0.000000
     1.9580      0.000000
     1.9585      0.000120
     1.9590      0.000150
     1.9595      0.000200
     1.9600      0.000430
     1.9605      0.000020
     1.9610      0.000000
     1.9615      0.000000
     1.9620      0.000000
     1.9625      0.000000
     1.9630      0.000000
     1.9635      0.000000
     1.9640      0.000000
     1.9645      0.000080
     1.9650      0.000110
     1.9655      0.000000
     1.9660      0.000190
     1.9665      0.000120
     1.9670      0.000030
     1.9675      0.000280
     1.9680      0.000000
     1.9685      0.000030
     1.9690      0.000010
     1.9695      0.000000
     1.9700      0.000000
     1.9705      0.000000
     1.9710      0.000000
     1.9715      0.000000
     1.9720      0.000000
     1.9725      0.000010
     1.9730      0.000160
     1.9735      0.000320
     1.9740      0.000590
     1.9745      0.000580
     1.9750      0.000120
     1.9755      0.000210
     1.9760      0.000110
     1.9765      0.000000
     1.9770      0.000000
     1.9775      0.000000
     1.9780      0.000000
     1.9785      0.000160
     1.9790      0.000160
     1.9795      0.000010
     1.9800      0.000020
     1.9805      0.000210
     1.9810      0.000040
     1.9815      0.000000
     1.9820      0.000000
     1.9825      0.000000
     1.9830      0.000000
     1.9835      0.000000
     1.9840      0.000100
     1.9845      0.000270
     1.9850      0.000020
     1.9855      0.000000
     1.9860      0.000040
     1.9865      0.000000
     1.9870      0.000000
     1.9875      0.000000
     1.9880      0.000000
     1.9885      0.000000
     1.9890      0.000000
     1.9895      0.000130
     1.9900      0.000000
     1.9905      0.000000
     1.9910      0.000000
     1.9915      0.000000
     1.9920      0.000000
     1.9925      0.000000
     1.9930      0.000000
     1.9935      0.000000
     1.9940      0.000000
     1.9945      0.000000
     1.9950      0.000060
     1.9955      0.000090
     1.9960      0.000000
     1.9965      0.000000
     1.9970      0.000000
     1.9975      0.000000
     1.9980      0.000030
     1.9985      0.000040
     1.9990      0.000000
     1.9995      0.000000
     2.0000      0.000000
     2.0005      0.000000
     2.0010      0.000000
     2.0015      0.000000
     2.0020      0.000000
     2.0025      0.000000
     2.0030      0.000050
     2.0035      0.000140
     2.0040      0.000010
     2.0045      0.000030
     2.0050      0.000300
     2.0055      0.000150
     2.0060      0.000000
     2.0065      0.000160
     2.0070      0.000210
     2.0075      0.000030
     2.0080      0.000010
     2.0085      0.000060
     2.0090      0.000000
     2.0095      0.000000
     2.0100      0.000000
     2.0105      0.000030
     2.0110      0.000010
     2.0115      0.000000
     2.0120      0.000000
     2.0125      0.000150
     2.0130      0.000250
     2.0135      0.000000
     2.0140      0.000000
     2.0145      0.000070
     2.0150      0.000180
     2.0155      0.000160
     2.0160      0.000250
     2.0165      0.000550
     2.0170      0.000330
     2.0175      0.000260
     2.0180      0.000450
     2.0185      0.000550
     2.0190      0.000280
     2.0195      0.000210
     2.0200      0.000110
     2.0205      0.000000
     2.0210      0.000010
     2.0215      0.000000
     2.0220      0.000040
     2.0225      0.000540
     2.0230      0.000420
     2.0235      0.000060
     2.0240      0.000000
     2.0245      0.000000
     2.0250      0.000000
     2.0255      0.000030
     2.0260      0.000460
     2.0265      0.000000
     2.0270      0.000000
     2.0275      0.000000
     2.0280      0.000000
     2.0285      0.000000
     2.0290      0.000050
     2.0295      0.000010
     2.0300      0.000260
     2.0305      0.000630
     2.0310      0.000500
     2.0315      0.000380
     2.0320      0.000080
     2.0325      0.000000
     2.0330      0.000000
     2.0335      0.000000
     2.0340      0.000050
     2.0345      0.000350
     2.0350      0.000490
     2.0355      0.000570
     2.0360      0.000380
     2.0365      0.000020
     2.0370      0.000170
     2.0375      0.000230
     2.0380      0.000350
     2.0385      0.000530
     2.0390      0.000180
     2.0395      0.000070
     2.0400      0.000010
     2.0405      0.000250
     2.0410      0.000320
     2.0415      0.000070
     2.0420      0.000190
     2.0425      0.000000
     2.0430      0.000000
     2.0435      0.000190
     2.0440      0.000590
     2.0445      0.000480
     2.0450      0.000090
     2.0455      0.000000
     2.0460      0.000000
     2.0465      0.000000
     2.0470      0.000000
     2.0475      0.000000
     2.0480      0.000000
     2.0485      0.000320
     2.0490      0.000200
     2.0495      0.000090
     2.0500      0.000010
     2.0505      0.000050
     2.0510      0.000120
     2.0515      0.000080
     2.0520      0.000290
     2.0525      0.000280
     2.0530      0.000040
     2.0535      0.000010
     2.0540      0.000030
     2.0545      0.000000
     2.0550      0.000000
     2.0555      0.000000
     2.0560      0.000000
     2.0565      0.000000
     2.0570      0.000090
     2.0575      0.000300
     2.0580      0.000430
     2.0585      0.000470
     2.0590      0.000720
     2.0595      0.000450
     2.0600      0.000260
     2.0605      0.000210
     2.0610      0.000010
     2.0615      0.000340
     2.0620      0.000200
     2.0625      0.000000
     2.0630      0.000000
     2.0635      0.000000
     2.0640      0.000000
     2.0645      0.000000
     2.0650      0.000000
     2.0655      0.000000
     2.0660      0.000000
     2.0665      0.000000
     2.0670      0.000170
     2.0675      0.000200
     2.0680      0.000010
     2.0685      0.000000
     2.0690      0.000110
     2.0695      0.000290
     2.0700      0.000060
     2.0705      0.000000
     2.0710      0.000000
     2.0715      0.000000
     2.0720      0.000100
     2.0725      0.000560
     2.0730      0.000740
     2.0735      0.000370
     2.0740      0.000090
     2.0745      0.000000
     2.0750      0.000220
     2.0755      0.000580
     2.0760      0.000230
     2.0765      0.000000
     2.0770      0.000040
     2.0775      0.000160
     2.0780      0.000000
     2.0785      0.000090
     2.0790      0.000290
     2.0795      0.000140
     2.0800      0.000260
     2.0805      0.000100
     2.0810      0.000000
     2.0815      0.000040
     2.0820      0.000270
     2.0825      0.000210
     2.0830      0.000020
     2.0835      0.000520
     2.0840      0.000630
     2.0845      0.000480
     2.0850      0.000200
     2.0855      0.000000
     2.0860      0.000160
     2.0865      0.000150
     2.0870      0.000020
     2.0875      0.000000
     2.0880      0.000410
     2.0885      0.000510
     2.0890      0.000370
     2.0895      0.000190
     2.0900      0.000010
     2.0905      0.000000
     2.0910      0.000000
     2.0915      0.000000
     2.0920      0.000030
     2.0925      0.000260
     2.0930      0.000450
     2.0935      0.000120
     2.0940      0.000000
     2.0945      0.000010
     2.0950      0.000280
     2.0955      0.000530
     2.0960      0.000550
     2.0965      0.000590
     2.0970      0.000860
     2.0975      0.000890
     2.0980      0.000580
     2.0985      0.000320
     2.0990      0.000000
     2.0995      0.000000
     2.1000      0.000010
     2.1005      0.000120
     2.1010      0.000160
     2.1015      0.000020
     2.1020      0.000000
     2.1025      0.000000
     2.1030      0.000000
     2.1035      0.000050
     2.1040      0.000280
     2.1045      0.000500
     2.1050      0.000630
     2.1055      0.000240
     2.1060      0.000000
     2.1065      0.000000
     2.1070      0.000000
     2.1075      0.000000
     2.1080      0.000010
     2.1085      0.000120
     2.1090      0.000000
     2.1095      0.000000
     2.1100      0.000000
     2.1105      0.000000
     2.1110      0.000000
     2.1115      0.000000
     2.1120      0.000000
     2.1125      0.000000
     2.1130      0.000000
     2.1135      0.000000
     2.1140      0.000000
     2.1145      0.000010
     2.1150      0.000020
     2.1155      0.000000
     2.1160      0.000000
     2.1165      0.000160
     2.1170      0.000310
     2.1175      0.000010
     2.1180      0.000000
     2.1185      0.000000
     2.1190      0.000000
     2.1195      0.000120
     2.1200      0.000010
     2.1205      0.000000
     2.1210      0.000000
     2.1215      0.000000
     2.1220      0.000000
     2.1225      0.000000
     2.1230      0.000070
     2.1235      0.000230
     2.1240      0.000210
     2.1245      0.000170
     2.1250      0.000080
     2.1255      0.000080
     2.1260      0.000480
     2.1265      0.000390
     2.1270      0.000000
     2.1275      0.000000
     2.1280      0.000000
     2.1285      0.000240
     2.1290      0.000510
     2.1295      0.000130
     2.1300      0.000000
     2.1305      0.000190
     2.1310      0.000000
     2.1315      0.000000
     2.1320      0.000000
     2.1325      0.000040
     2.1330      0.000130
     2.1335      0.000020
     2.1340      0.000000
     2.1345      0.000340
     2.1350      0.000410
     2.1355      0.000060
     2.1360      0.000000
     2.1365      0.000000
     2.1370      0.000000
     2.1375      0.000000
     2.1380      0.000040
     2.1385      0.000330
     2.1390      0.000190
     2.1395      0.000000
     2.1400      0.000000
     2.1405      0.000000
     2.1410      0.000000
     2.1415      0.000000
     2.1420      0.000110
     2.1425      0.000060
     2.1430      0.000000
     2.1435      0.000000
     2.1440      0.000060
     2.1445      0.000330
     2.1450      0.000360
     2.1455      0.000040
     2.1460      0.000000
     2.1465      0.000030
     2.1470      0.000090
     2.1475      0.000360
     2.1480      0.000810
     2.1485      0.000530
     2.1490      0.000060
     2.1495      0.000190
     2.1500      0.000270
     2.1505      0.000370
     2.1510      0.000560
     2.1515      0.000220
     2.1520      0.000000
     2.1525      0.000220
     2.1530      0.000080
     2.1535      0.000000
     2.1540      0.000000
     2.1545      0.000030
     2.1550      0.000110
     2.1555      0.000220
     2.1560      0.000190
     2.1565      0.000030
     2.1570      0.000130
     2.1575      0.000310
     2.1580      0.000160
     2.1585      0.000360
     2.1590      0.000350
     2.1595      0.000300
     2.1600      0.000710
     2.1605      0.000440
     2.1610      0.000040
     2.1615      0.000140
     2.1620      0.000200
     2.1625      0.000350
     2.1630      0.000510
     2.1635      0.000270
     2.1640      0.000010
     2.1645      0.000000
     2.1650      0.000010
     2.1655      0.000010
     2.1660      0.000000
     2.1665      0.000250
     2.1670      0.000290
     2.1675      0.000070
     2.1680      0.000000
     2.1685      0.000090
     2.1690      0.000210
     2.1695      0.000080
     2.1700      0.000000
     2.1705      0.000000
     2.1710      0.000000
     2.1715      0.000050
     2.1720      0.000320
     2.1725      0.000300
     2.1730      0.000000
     2.1735      0.000000
     2.1740      0.000000
     2.1745      0.000000
     2.1750      0.000000
     2.1755      0.000000
     2.1760      0.000000
     2.1765      0.000000
     2.1770      0.000000
     2.1775      0.000000
     2.1780      0.000010
     2.1785      0.000050
     2.1790      0.000000
     2.1795      0.000140
     2.1800      0.000420
     2.1805      0.000300
     2.1810      0.000050
     2.1815      0.000000
     2.1820      0.000070
     2.1825      0.000280
     2.1830      0.000130
     2.1835      0.000000
     2.1840      0.000000
     2.1845      0.000000
     2.1850      0.000060
     2.1855      0.000220
     2.1860      0.000190
     2.1865      0.000040
     2.1870      0.000000
     2.1875      0.000360
     2.1880      0.000530
     2.1885      0.000000
     2.1890      0.000020
     2.1895      0.000170
     2.1900      0.000030
     2.1905      0.000030
     2.1910      0.000180
     2.1915      0.000310
     2.1920      0.000170
     2.1925      0.000020
     2.1930      0.000050
     2.1935      0.000130
     2.1940      0.000020
     2.1945      0.000000
     2.1950      0.000000
     2.1955      0.000040
     2.1960      0.000370
     2.1965      0.000350
     2.1970      0.000330
     2.1975      0.000540
     2.1980      0.000640
     2.1985      0.000250
     2.1990      0.000000
     2.1995      0.000000
     2.2000      0.000060
     2.2005      0.000010
     2.2010      0.000000
     2.2015      0.000290
     2.2020      0.000330
     2.2025      0.000440
     2.2030      0.000230
     2.2035      0.000000
     2.2040      0.000000
     2.2045      0.000000
     2.2050      0.000020
     2.2055      0.000020
     2.2060      0.000000
     2.2065      0.000000
     2.2070      0.000080
     2.2075      0.000300
     2.2080      0.000130
     2.2085      0.000010
     2.2090      0.000070
     2.2095      0.000000
     2.2100      0.000010
     2.2105      0.000070
     2.2110      0.000000
     2.2115      0.000030
     2.2120      0.000160
     2.2125      0.000290
     2.2130      0.000200
     2.2135      0.000050
     2.2140      0.000000
     2.2145      0.000000
     2.2150      0.000000
     2.2155      0.000000
     2.2160      0.000000
     2.2165      0.000000
     2.2170      0.000000
     2.2175      0.000000
     2.2180      0.000000
     2.2185      0.000130
     2.2190      0.000000
     2.2195      0.000000
     2.2200      0.000030
     2.2205      0.000160
     2.2210      0.000220
     2.2215      0.000110
     2.2220      0.000100
     2.2225      0.000120
     2.2230      0.000030
     2.2235      0.000000
     2.2240      0.000000
     2.2245      0.000000
     2.2250      0.000000
     2.2255      0.000000
     2.2260      0.000000
     2.2265      0.000000
     2.2270      0.000200
     2.2275      0.000410
     2.2280      0.000340
     2.2285      0.000400
     2.2290      0.000380
     2.2295      0.000110
     2.2300      0.000340
     2.2305      0.000530
     2.2310      0.000130
     2.2315      0.000000
     2.2320      0.000000
     2.2325      0.000140
     2.2330      0.000410
     2.2335      0.000370
     2.2340      0.000250
     2.2345      0.000300
     2.2350      0.000410
     2.2355      0.000530
     2.2360      0.000500
     2.2365      0.000380
     2.2370      0.000290
     2.2375      0.000280
     2.2380      0.000160
     2.2385      0.000020
     2.2390      0.000000
     2.2395      0.000000
     2.2400      0.000000
     2.2405      0.000020
     2.2410      0.000000
     2.2415      0.000000
     2.2420      0.000000
     2.2425      0.000020
     2.2430      0.000210
     2.2435      0.000210
     2.2440      0.000170
     2.2445      0.000170
     2.2450      0.000030
     2.2455      0.000000
     2.2460      0.000000
     2.2465      0.000140
     2.2470      0.000340
     2.2475      0.000200
     2.2480      0.000260
     2.2485      0.000360
     2.2490      0.000230
     2.2495      0.000270
     2.2500      0.000440
     2.2505      0.000300
     2.2510      0.000140
     2.2515      0.000490
     2.2520      0.000900
     2.2525      0.000780
     2.2530      0.000650
     2.2535      0.000550
     2.2540      0.000190
     2.2545      0.000200
     2.2550      0.000570
     2.2555      0.000510
     2.2560      0.000140
     2.2565      0.000080
     2.2570      0.000140
     2.2575      0.000140
     2.2580      0.000450
     2.2585      0.000560
     2.2590      0.000400
     2.2595      0.000520
     2.2600      0.000520
     2.2605      0.000320
     2.2610      0.000020
     2.2615      0.000000
     2.2620      0.000020
     2.2625      0.000000
     2.2630      0.000000
     2.2635      0.000270
     2.2640      0.000340
     2.2645      0.000110
     2.2650      0.000010
     2.2655      0.000000
     2.2660      0.000010
     2.2665      0.000110
     2.2670      0.000340
     2.2675      0.000510
     2.2680      0.000710
     2.2685      0.000660
     2.2690      0.000420
     2.2695      0.000260
     2.2700      0.000000
     2.2705      0.000000
     2.2710      0.000000
     2.2715      0.000000
     2.2720      0.000000
     2.2725      0.000000
     2.2730      0.000020
     2.2735      0.000110
     2.2740      0.000020
     2.2745      0.000000
     2.2750      0.000000
     2.2755      0.000000
     2.2760      0.000000
     2.2765      0.000000
     2.2770      0.000000
     2.2775      0.000010
     2.2780      0.000050
     2.2785      0.000010
     2.2790      0.000000
     2.2795      0.000000
     2.2800      0.000000
     2.2805      0.000000
     2.2810      0.000000
     2.2815      0.000000
     2.2820      0.000000
     2.2825      0.000000
     2.2830      0.000000
     2.2835      0.000000
     2.2840      0.000000
     2.2845      0.000000
     2.2850      0.000000
     2.2855      0.000000
     2.2860      0.000000
     2.2865      0.000000
     2.2870      0.000000
     2.2875      0.000000
     2.2880      0.000000
     2.2885      0.000000
     2.2890      0.000000
     2.2895      0.000000
     2.2900      0.000000
     2.2905      0.000070
     2.2910      0.000000
     2.2915      0.000000
     2.2920      0.000000
     2.2925      0.000000
     2.2930      0.000000
     2.2935      0.000000
     2.2940      0.000020
     2.2945      0.000120
     2.2950      0.000020
     2.2955      0.000000
     2.2960      0.000000
     2.2965      0.000000
     2.2970      0.000000
     2.2975      0.000000
     2.2980      0.000000
     2.2985      0.000000
     2.2990      0.000000
     2.2995      0.000000
     2.3000      0.000000
     2.3005      0.000000
     2.3010      0.000000
     2.3015      0.000000
     2.3020      0.000000
     2.3025      0.000000
     2.3030      0.000000
     2.3035      0.000090
     2.3040      0.000080
     2.3045      0.000000
     2.3050      0.000000
     2.3055      0.000000
     2.3060      0.000000
     2.3065      0.000000
     2.3070      0.000000
     2.3075      0.000090
     2.3080      0.000160
     2.3085      0.000000
     2.3090      0.000000
     2.3095      0.000000
     2.3100      0.000000
     2.3105      0.000000
     2.3110      0.000000
     2.3115      0.000000
     2.3120      0.000000
     2.3125      0.000000
     2.3130      0.000000
     2.3135      0.000000
     2.3140      0.000000
     2.3145      0.000000
     2.3150      0.000000
     2.3155      0.000000
     2.3160      0.000000
     2.3165      0.000000
     2.3170      0.000150
     2.3175      0.000170
     2.3180      0.000050
     2.3185      0.000000
     2.3190      0.000210
     2.3195      0.000130
     2.3200      0.000000
     2.3205      0.000000
     2.3210      0.000020
     2.3215      0.000140
     2.3220      0.000250
     2.3225      0.000260
     2.3230      0.000230
     2.3235      0.000130
     2.3240      0.000020
     2.3245      0.000000
     2.3250      0.000000
     2.3255      0.000000
     2.3260      0.000000
     2.3265      0.000000
     2.3270      0.000000
     2.3275      0.000000
     2.3280      0.000170
     2.3285      0.000120
     2.3290      0.000020
     2.3295      0.000000
     2.3300      0.000010
     2.3305      0.000090
     2.3310      0.000040
     2.3315      0.000000
     2.3320      0.000000
     2.3325      0.000000
     2.3330      0.000000
     2.3335      0.000000
     2.3340      0.000020
     2.3345      0.000100
     2.3350      0.000180
     2.3355      0.000120
     2.3360      0.000000
     2.3365      0.000000
     2.3370      0.000000
     2.3375      0.000000
     2.3380      0.000000
     2.3385      0.000040
     2.3390      0.000010
     2.3395      0.000000
     2.3400      0.000000
     2.3405      0.000010
     2.3410      0.000010
     2.3415      0.000000
     2.3420      0.000040
     2.3425      0.000160
     2.3430      0.000230
     2.3435      0.000130
     2.3440      0.000090
     2.3445      0.000320
     2.3450      0.000320
     2.3455      0.000000
     2.3460      0.000000
     2.3465      0.000000
     2.3470      0.000000
     2.3475      0.000000
     2.3480      0.000130
     2.3485      0.000310
     2.3490      0.000320
     2.3495      0.000100
     2.3500      0.000000
     2.3505      0.000000
     2.3510      0.000000
     2.3515      0.000000
     2.3520      0.000000
     2.3525      0.000000
     2.3530      0.000000
     2.3535      0.000000
     2.3540      0.000000
     2.3545      0.000000
     2.3550      0.000000
     2.3555      0.000260
     2.3560      0.000280
     2.3565      0.000060
     2.3570      0.000000
     2.3575      0.000000
     2.3580      0.000000
     2.3585      0.000000
     2.3590      0.000000
     2.3595      0.000000
     2.3600      0.000000
     2.3605      0.000000
     2.3610      0.000000
     2.3615      0.000000
     2.3620      0.000000
     2.3625      0.000000
     2.3630      0.000000
     2.3635      0.000000
     2.3640      0.000000
     2.3645      0.000000
     2.3650      0.000200
     2.3655      0.000310
     2.3660      0.000160
     2.3665      0.000000
     2.3670      0.000000
     2.3675      0.000000
     2.3680      0.000000
     2.3685      0.000000
     2.3690      0.000000
     2.3695      0.000000
     2.3700      0.000000
     2.3705      0.000000
     2.3710      0.000000
     2.3715      0.000000
     2.3720      0.000000
     2.3725      0.000000
     2.3730      0.000000
     2.3735      0.000030
     2.3740      0.000240
     2.3745      0.000640
     2.3750      0.000260
     2.3755      0.000000
     2.3760      0.000000
     2.3765      0.000000
     2.3770      0.000000
     2.3775      0.000000
     2.3780      0.000000
     2.3785      0.000000
     2.3790      0.000000
     2.3795      0.000000
     2.3800      0.000000
     2.3805      0.000000
     2.3810      0.000000
     2.3815      0.000000
     2.3820      0.000120
     2.3825      0.000180
     2.3830      0.000060
     2.3835      0.000250
     2.3840      0.000490
     2.3845      0.000430
     2.3850      0.000220
     2.3855      0.000120
     2.3860      0.000090
     2.3865      0.000190
     2.3870      0.000450
     2.3875      0.000230
     2.3880      0.000030
     2.3885      0.000000
     2.3890      0.000000
     2.3895      0.000110
     2.3900      0.000100
     2.3905      0.000000
     2.3910      0.000000
     2.3915      0.000000
     2.3920      0.000000
     2.3925      0.000000
     2.3930      0.000000
     2.3935      0.000000
     2.3940      0.000000
     2.3945      0.000000
     2.3950      0.000000
     2.3955      0.000000
     2.3960      0.000060
     2.3965      0.000140
     2.3970      0.000000
     2.3975      0.000030
     2.3980      0.000080
     2.3985      0.000010
     2.3990      0.000000
     2.3995      0.000120
     2.4000      0.000140
     2.4005      0.000170
     2.4010      0.000330
     2.4015      0.000400
     2.4020      0.000180
     2.4025      0.000000
     2.4030      0.000000
     2.4035      0.000000
     2.4040      0.000000
     2.4045      0.000000
     2.4050      0.000100
     2.4055      0.000220
     2.4060      0.000200
     2.4065      0.000040
     2.4070      0.000000
     2.4075      0.000000
     2.4080      0.000000
     2.4085      0.000000
     2.4090      0.000040
     2.4095      0.000140
     2.4100      0.000170
     2.4105      0.000080
     2.4110      0.000000
     2.4115      0.000010
     2.4120      0.000100
     2.4125      0.000380
     2.4130      0.000240
     2.4135      0.000060
     2.4140      0.000000
     2.4145      0.000000
     2.4150      0.000000
     2.4155      0.000000
     2.4160      0.000000
     2.4165      0.000000
     2.4170      0.000000
     2.4175      0.000250
     2.4180      0.000280
     2.4185      0.000110
     2.4190      0.000000
     2.4195      0.000060
     2.4200      0.000120
     2.4205      0.000000
     2.4210      0.000000
     2.4215      0.000000
     2.4220      0.000000
     2.4225      0.000010
     2.4230      0.000010
     2.4235      0.000000
     2.4240      0.000000
     2.4245      0.000020
     2.4250      0.000100
     2.4255      0.000040
     2.4260      0.000000
     2.4265      0.000000
     2.4270      0.000120
     2.4275      0.000120
     2.4280      0.000030
     2.4285      0.000000
     2.4290      0.000000
     2.4295      0.000000
     2.4300      0.000000
     2.4305      0.000000
     2.4310      0.000000
     2.4315      0.000000
     2.4320      0.000000
     2.4325      0.000000
     2.4330      0.000000
     2.4335      0.000000
     2.4340      0.000130
     2.4345      0.000200
     2.4350      0.000080
     2.4355      0.000130
     2.4360      0.000260
     2.4365      0.000190
     2.4370      0.000000
     2.4375      0.000000
     2.4380      0.000000
     2.4385      0.000000
     2.4390      0.000000
     2.4395      0.000000
     2.4400      0.000000
     2.4405      0.000000
     2.4410      0.000000
     2.4415      0.000000
     2.4420      0.000000
     2.4425      0.000000
     2.4430      0.000170
     2.4435      0.000180
     2.4440      0.000040
     2.4445      0.000010
     2.4450      0.000080
     2.4455      0.000150
     2.4460      0.000030
     2.4465      0.000000
     2.4470      0.000000
     2.4475      0.000000
     2.4480      0.000000
     2.4485      0.000000
     2.4490      0.000000
     2.4495      0.000000
     2.4500      0.000000
     2.4505      0.000000
     2.4510      0.000000
     2.4515      0.000000
     2.4520      0.000070
     2.4525      0.000410
     2.4530      0.000390
     2.4535      0.000150
     2.4540      0.000030
     2.4545      0.000000
     2.4550      0.000000
     2.4555      0.000000
     2.4560      0.000000
     2.4565      0.000000
     2.4570      0.000130
     2.4575      0.000060
     2.4580      0.000010
     2.4585      0.000060
     2.4590      0.000200
     2.4595      0.000270
     2.4600      0.000100
     2.4605      0.000040
     2.4610      0.000070
     2.4615      0.000060
     2.4620      0.000010
     2.4625      0.000000
     2.4630      0.000000
     2.4635      0.000000
     2.4640      0.000140
     2.4645      0.000070
     2.4650      0.000000
     2.4655      0.000000
     2.4660      0.000000
     2.4665      0.000000
     2.4670      0.000000
     2.4675      0.000100
     2.4680      0.000050
     2.4685      0.000010
     2.4690      0.000010
     2.4695      0.000000
     2.4700      0.000000
     2.4705      0.000000
     2.4710      0.000030
     2.4715      0.000020
     2.4720      0.000060
     2.4725      0.000200
     2.4730      0.000360
     2.4735      0.000140
     2.4740      0.000110
     2.4745      0.000250
     2.4750      0.000240
     2.4755      0.000090
     2.4760      0.000000
     2.4765      0.000000
     2.4770      0.000000
     2.4775      0.000000
     2.4780      0.000000
     2.4785      0.000000
     2.4790      0.000000
     2.4795      0.000000
     2.4800      0.000000
     2.4805      0.000000
     2.4810      0.000000
     2.4815      0.000000
     2.4820      0.000000
     2.4825      0.000000
     2.4830      0.000000
     2.4835      0.000040
     2.4840      0.000070
     2.4845      0.000090
     2.4850      0.000170
     2.4855      0.000380
     2.4860      0.000630
     2.4865      0.000480
     2.4870      0.000200
     2.4875      0.000080
     2.4880      0.000140
     2.4885      0.000220
     2.4890      0.000140
     2.4895      0.000050
     2.4900      0.000030
     2.4905      0.000010
     2.4910      0.000000
     2.4915      0.000000
     2.4920      0.000030
     2.4925      0.000490
     2.4930      0.000310
     2.4935      0.000100
     2.4940      0.000040
     2.4945      0.000100
     2.4950      0.000030
     2.4955      0.000000
     2.4960      0.000030
     2.4965      0.000100
     2.4970      0.000160
     2.4975      0.000180
     2.4980      0.000160
     2.4985      0.000120
     2.4990      0.000030
     2.4995      0.000000
     2.5000      0.000000
     2.5005      0.000020
     2.5010      0.000090
     2.5015      0.000350
     2.5020      0.000570
     2.5025      0.000530
     2.5030      0.000390
     2.5035      0.000330
     2.5040      0.000380
     2.5045      0.000250
     2.5050      0.000180
     2.5055      0.000140
     2.5060      0.000110
     2.5065      0.000040
     2.5070      0.000020
     2.5075      0.000010
     2.5080      0.000000
     2.5085      0.000000
     2.5090      0.000000
     2.5095      0.000010
     2.5100      0.000170
     2.5105      0.000120
     2.5110      0.000050
     2.5115      0.000080
     2.5120      0.000230
     2.5125      0.000430
     2.5130      0.000230
     2.5135      0.000070
     2.5140      0.000000
     2.5145      0.000000
     2.5150      0.000000
     2.5155      0.000000
     2.5160      0.000000
     2.5165      0.000000
     2.5170      0.000000
     2.5175      0.000000
     2.5180      0.000000
     2.5185      0.000000
     2.5190      0.000000
     2.5195      0.000000
     2.5200      0.000000
     2.5205      0.000000
     2.5210      0.000000
     2.5215      0.000100
     2.5220      0.000060
     2.5225      0.000000
     2.5230      0.000000
     2.5235      0.000000
     2.5240      0.000330
     2.5245      0.000390
     2.5250      0.000210
     2.5255      0.000000
     2.5260      0.000000
     2.5265      0.000000
     2.5270      0.000000
     2.5275      0.000000
     2.5280      0.000000
     2.5285      0.000000
     2.5290      0.000000
     2.5295      0.000000
     2.5300      0.000000
     2.5305      0.000000
     2.5310      0.000000
     2.5315      0.000000
     2.5320      0.000000
     2.5325      0.000000
     2.5330      0.000170
     2.5335      0.000490
     2.5340      0.000700
     2.5345      0.000950
     2.5350      0.000790
     2.5355      0.000370
     2.5360      0.000010
     2.5365      0.000060
     2.5370      0.000190
     2.5375      0.000100
     2.5380      0.000020
     2.5385      0.000000
     2.5390      0.000040
     2.5395      0.000440
     2.5400      0.000900
     2.5405      0.001040
     2.5410      0.000870
     2.5415      0.000550
     2.5420      0.000510
     2.5425      0.000410
     2.5430      0.000190
     2.5435      0.000000
     2.5440      0.000000
     2.5445      0.000000
     2.5450      0.000000
     2.5455      0.000000
     2.5460      0.000000
     2.5465      0.000000
     2.5470      0.000000
     2.5475      0.000000
     2.5480      0.000000
     2.5485      0.000000
     2.5490      0.000030
     2.5495      0.000260
     2.5500      0.000620
     2.5505      0.000470
     2.5510      0.000110
     2.5515      0.000000
     2.5520      0.000000
     2.5525      0.000000
     2.5530      0.000050
     2.5535      0.000080
     2.5540      0.000030
     2.5545      0.000000
     2.5550      0.000000
     2.5555      0.000100
     2.5560      0.000230
     2.5565      0.000230
     2.5570      0.000040
     2.5575      0.000000
     2.5580      0.000000
     2.5585      0.000000
     2.5590      0.000000
     2.5595      0.000000
     2.5600      0.000070
     2.5605      0.000300
     2.5610      0.000660
     2.5615      0.000960
     2.5620      0.000810
     2.5625      0.000350
     2.5630      0.000000
     2.5635      0.000000
     2.5640      0.000000
     2.5645      0.000040
     2.5650      0.000030
     2.5655      0.000000
     2.5660      0.000000
     2.5665      0.000000
     2.5670      0.000000
     2.5675      0.000000
     2.5680      0.000000
     2.5685      0.000000
     2.5690      0.000000
     2.5695      0.000000
     2.5700      0.000080
     2.5705      0.000250
     2.5710      0.000270
     2.5715      0.000080
     2.5720      0.000000
     2.5725      0.000000
     2.5730      0.000000
     2.5735      0.000040
     2.5740      0.000020
     2.5745      0.000000
     2.5750      0.000010
     2.5755      0.000080
     2.5760      0.000020
     2.5765      0.000260
     2.5770      0.000550
     2.5775      0.000630
     2.5780      0.000160
     2.5785      0.000030
     2.5790      0.000120
     2.5795      0.000320
     2.5800      0.000410
     2.5805      0.000220
     2.5810      0.000120
     2.5815      0.000160
     2.5820      0.000350
     2.5825      0.000720
     2.5830      0.000610
     2.5835      0.000300
     2.5840      0.000030
     2.5845      0.000160
     2.5850      0.000400
     2.5855      0.000530
     2.5860      0.000590
     2.5865      0.000600
     2.5870      0.000190
     2.5875      0.000040
     2.5880      0.000000
     2.5885      0.000000
     2.5890      0.000000
     2.5895      0.000000
     2.5900      0.000000
     2.5905      0.000050
     2.5910      0.000170
     2.5915      0.000030
     2.5920      0.000000
     2.5925      0.000000
     2.5930      0.000000
     2.5935      0.000000
     2.5940      0.000000
     2.5945      0.000000
     2.5950      0.000000
     2.5955      0.000000
     2.5960      0.000090
     2.5965      0.000110
     2.5970      0.000140
     2.5975      0.000210
     2.5980      0.000320
     2.5985      0.000140
     2.5990      0.000000
     2.5995      0.000000
     2.6000      0.000000
     2.6005      0.000000
     2.6010      0.000110
     2.6015      0.000270
     2.6020      0.000280
     2.6025      0.000080
     2.6030      0.000000
     2.6035      0.000000
     2.6040      0.000000
     2.6045      0.000000
     2.6050      0.000000
     2.6055      0.000000
     2.6060      0.000000
     2.6065      0.000000
     2.6070      0.000000
     2.6075      0.000000
     2.6080      0.000000
     2.6085      0.000000
     2.6090      0.000000
     2.6095      0.000000
     2.6100      0.000030
     2.6105      0.000180
     2.6110      0.000070
     2.6115      0.000010
     2.6120      0.000000
     2.6125      0.000000
     2.6130      0.000000
     2.6135      0.000000
     2.6140      0.000000
     2.6145      0.000000
     2.6150      0.000000
     2.6155      0.000000
     2.6160      0.000000
     2.6165      0.000000
     2.6170      0.000000
     2.6175      0.000160
     2.6180      0.000210
     2.6185      0.000030
     2.6190      0.000010
     2.6195      0.000000
     2.6200      0.000320
     2.6205      0.000940
     2.6210      0.000930
     2.6215      0.000530
     2.6220      0.000180
     2.6225      0.000050
     2.6230      0.000380
     2.6235      0.000550
     2.6240      0.000520
     2.6245      0.000310
     2.6250      0.000160
     2.6255      0.000050
     2.6260      0.000000
     2.6265      0.000000
     2.6270      0.000000
     2.6275      0.000000
     2.6280      0.000030
     2.6285      0.000110
     2.6290      0.000380
     2.6295      0.000220
     2.6300      0.000070
     2.6305      0.000000
     2.6310      0.000000
     2.6315      0.000000
     2.6320      0.000080
     2.6325      0.000210
     2.6330      0.000160
     2.6335      0.000270
     2.6340      0.000380
     2.6345      0.000430
     2.6350      0.000290
     2.6355      0.000100
     2.6360      0.000000
     2.6365      0.000000
     2.6370      0.000000
     2.6375      0.000040
     2.6380      0.000310
     2.6385      0.000780
     2.6390      0.000820
     2.6395      0.000620
     2.6400      0.000410
     2.6405      0.000320
     2.6410      0.000480
     2.6415      0.000590
     2.6420      0.000550
     2.6425      0.000320
     2.6430      0.000070
     2.6435      0.000000
     2.6440      0.000000
     2.6445      0.000000
     2.6450      0.000350
     2.6455      0.000500
     2.6460      0.000460
     2.6465      0.000240
     2.6470      0.000180
     2.6475      0.000290
     2.6480      0.000420
     2.6485      0.000350
     2.6490      0.000120
     2.6495      0.000000
     2.6500      0.000000
     2.6505      0.000000
     2.6510      0.000000
     2.6515      0.000000
     2.6520      0.000000
     2.6525      0.000000
     2.6530      0.000000
     2.6535      0.000000
     2.6540      0.000000
     2.6545      0.000000
     2.6550      0.000000
     2.6555      0.000000
     2.6560      0.000000
     2.6565      0.000000
     2.6570      0.000080
     2.6575      0.000170
     2.6580      0.000120
     2.6585      0.000040
     2.6590      0.000080
     2.6595      0.000200
     2.6600      0.000220
     2.6605      0.000090
     2.6610      0.000000
     2.6615      0.000010
     2.6620      0.000180
     2.6625      0.000170
     2.6630      0.000080
     2.6635      0.000000
     2.6640      0.000000
     2.6645      0.000000
     2.6650      0.000000
     2.6655      0.000000
     2.6660      0.000000
     2.6665      0.000000
     2.6670      0.000000
     2.6675      0.000000
     2.6680      0.000000
     2.6685      0.000110
     2.6690      0.000410
     2.6695      0.000310
     2.6700      0.000150
     2.6705      0.000020
     2.6710      0.000090
     2.6715      0.000240
     2.6720      0.000360
     2.6725      0.000390
     2.6730      0.000150
     2.6735      0.000040
     2.6740      0.000060
     2.6745      0.000210
     2.6750      0.000830
     2.6755      0.001000
     2.6760      0.000830
     2.6765      0.000520
     2.6770      0.000310
     2.6775      0.000200
     2.6780      0.000180
     2.6785      0.000190
     2.6790      0.000140
     2.6795      0.000110
     2.6800      0.000190
     2.6805      0.000330
     2.6810      0.000360
     2.6815      0.000290
     2.6820      0.000160
     2.6825      0.000220
     2.6830      0.000250
     2.6835      0.000130
     2.6840      0.000040
     2.6845      0.000140
     2.6850      0.000320
     2.6855      0.000240
     2.6860      0.000100
     2.6865      0.000110
     2.6870      0.000370
     2.6875      0.000490
     2.6880      0.000390
     2.6885      0.000290
     2.6890      0.000540
     2.6895      0.000810
     2.6900      0.000920
     2.6905      0.000840
     2.6910      0.000840
     2.6915      0.000750
     2.6920      0.000560
     2.6925      0.000230
     2.6930      0.000270
     2.6935      0.000550
     2.6940      0.000980
     2.6945      0.000860
     2.6950      0.000430
     2.6955      0.000000
     2.6960      0.000000
     2.6965      0.000040
     2.6970      0.000070
     2.6975      0.000070
     2.6980      0.000100
     2.6985      0.000370
     2.6990      0.000690
     2.6995      0.000770
     2.7000      0.000720
     2.7005      0.000660
     2.7010      0.000620
     2.7015      0.000280
     2.7020      0.000090
     2.7025      0.000010
     2.7030      0.000030
     2.7035      0.000080
     2.7040      0.000080
     2.7045      0.000000
     2.7050      0.000000
     2.7055      0.000110
     2.7060      0.000320
     2.7065      0.000650
     2.7070      0.000560
     2.7075      0.000390
     2.7080      0.000320
     2.7085      0.000210
     2.7090      0.000100
     2.7095      0.000000
     2.7100      0.000000
     2.7105      0.000000
     2.7110      0.000020
     2.7115      0.000100
     2.7120      0.000050
     2.7125      0.000000
     2.7130      0.000000
     2.7135      0.000000
     2.7140      0.000230
     2.7145      0.000630
     2.7150      0.001110
     2.7155      0.000910
     2.7160      0.000610
     2.7165      0.000560
     2.7170      0.000510
     2.7175      0.000380
     2.7180      0.000150
     2.7185      0.000220
     2.7190      0.000140
     2.7195      0.000000
     2.7200      0.000000
     2.7205      0.000530
     2.7210      0.000820
     2.7215      0.000310
     2.7220      0.000090
     2.7225      0.000000
     2.7230      0.000010
     2.7235      0.000160
     2.7240      0.000370
     2.7245      0.000580
     2.7250      0.000710
     2.7255      0.000890
     2.7260      0.000980
     2.7265      0.000870
     2.7270      0.000750
     2.7275      0.000650
     2.7280      0.000590
     2.7285      0.000480
     2.7290      0.000250
     2.7295      0.000000
     2.7300      0.000000
     2.7305      0.000340
     2.7310      0.000810
     2.7315      0.001270
     2.7320      0.001140
     2.7325      0.000970
     2.7330      0.000920
     2.7335      0.000970
     2.7340      0.000780
     2.7345      0.000380
     2.7350      0.000100
     2.7355      0.000000
     2.7360      0.000000
     2.7365      0.000000
     2.7370      0.000000
     2.7375      0.000000
     2.7380      0.000000
     2.7385      0.000000
     2.7390      0.000000
     2.7395      0.000000
     2.7400      0.000000
     2.7405      0.000000
     2.7410      0.000030
     2.7415      0.000420
     2.7420      0.000620
     2.7425      0.000650
     2.7430      0.000480
     2.7435      0.000330
     2.7440      0.000260
     2.7445      0.000390
     2.7450      0.000600
     2.7455      0.000780
     2.7460      0.000860
     2.7465      0.000680
     2.7470      0.000400
     2.7475      0.000020
     2.7480      0.000010
     2.7485      0.000120
     2.7490      0.000330
     2.7495      0.000230
     2.7500      0.000110
     2.7505      0.000000
     2.7510      0.000000
     2.7515      0.000190
     2.7520      0.000380
     2.7525      0.000360
     2.7530      0.000740
     2.7535      0.001250
     2.7540      0.001810
     2.7545      0.001500
     2.7550      0.001130
     2.7555      0.000880
     2.7560      0.000760
     2.7565      0.000530
     2.7570      0.000140
     2.7575      0.000390
     2.7580      0.000870
     2.7585      0.001510
     2.7590      0.001630
     2.7595      0.001400
     2.7600      0.000970
     2.7605      0.000860
     2.7610      0.001300
     2.7615      0.001980
     2.7620      0.002450
     2.7625      0.002340
     2.7630      0.001980
     2.7635      0.001570
     2.7640      0.001010
     2.7645      0.000470
     2.7650      0.000070
     2.7655      0.000000
     2.7660      0.000150
     2.7665      0.000590
     2.7670      0.001190
     2.7675      0.001420
     2.7680      0.001040
     2.7685      0.000800
     2.7690      0.000710
     2.7695      0.000810
     2.7700      0.000440
     2.7705      0.000230
     2.7710      0.000200
     2.7715      0.000260
     2.7720      0.000400
     2.7725      0.000630
     2.7730      0.001200
     2.7735      0.001440
     2.7740      0.001390
     2.7745      0.001000
     2.7750      0.000780
     2.7755      0.000710
     2.7760      0.000790
     2.7765      0.000860
     2.7770      0.000910
     2.7775      0.000960
     2.7780      0.001210
     2.7785      0.001570
     2.7790      0.001820
     2.7795      0.001940
     2.7800      0.001990
     2.7805      0.002060
     2.7810      0.001780
     2.7815      0.001320
     2.7820      0.000770
     2.7825      0.000510
     2.7830      0.000430
     2.7835      0.000570
     2.7840      0.000680
     2.7845      0.000750
     2.7850      0.000780
     2.7855      0.000900
     2.7860      0.001070
     2.7865      0.001270
     2.7870      0.001540
     2.7875      0.001750
     2.7880      0.001690
     2.7885      0.001330
     2.7890      0.001000
     2.7895      0.001210
     2.7900      0.001850
     2.7905      0.002450
     2.7910      0.002360
     2.7915      0.002040
     2.7920      0.001800
     2.7925      0.002110
     2.7930      0.002280
     2.7935      0.002340
     2.7940      0.002260
     2.7945      0.002430
     2.7950      0.002680
     2.7955      0.002800
     2.7960      0.002860
     2.7965      0.002880
     2.7970      0.002750
     2.7975      0.002640
     2.7980      0.002640
     2.7985      0.003100
     2.7990      0.003300
     2.7995      0.003310
     2.8000      0.002920
     2.8005      0.002900
     2.8010      0.003120
     2.8015      0.003450
     2.8020      0.003380
     2.8025      0.003050
     2.8030      0.002760
     2.8035      0.002640
     2.8040      0.002640
     2.8045      0.002650
     2.8050      0.002820
     2.8055      0.003120
     2.8060      0.003550
     2.8065      0.003860
     2.8070      0.004040
     2.8075      0.003970
     2.8080      0.003820
     2.8085      0.003560
     2.8090      0.003480
     2.8095      0.003560
     2.8100      0.003830
     2.8105      0.004080
     2.8110      0.004250
     2.8115      0.004280
     2.8120      0.004220
     2.8125      0.004140
     2.8130      0.004070
     2.8135      0.004210
     2.8140      0.004430
     2.8145      0.004740
     2.8150      0.004910
     2.8155      0.005040
     2.8160      0.005160
     2.8165      0.005160
     2.8170      0.005110
     2.8175      0.005090
     2.8180      0.005240
     2.8185      0.005460
     2.8190      0.005480
     2.8195      0.005640
     2.8200      0.005920
     2.8205      0.006200
     2.8210      0.006160
     2.8215      0.005800
     2.8220      0.005810
     2.8225      0.006070
     2.8230      0.006650
     2.8235      0.007080
     2.8240      0.007430
     2.8245      0.007660
     2.8250      0.007800
     2.8255      0.007890
     2.8260      0.007890
     2.8265      0.007930
     2.8270      0.007980
     2.8275      0.008100
     2.8280      0.008300
     2.8285      0.008550
     2.8290      0.008780
     2.8295      0.008840
     2.8300      0.008780
     2.8305      0.009150
     2.8310      0.009710
     2.8315      0.010500
     2.8320      0.010780
     2.8325      0.011020
     2.8330      0.011260
     2.8335      0.011860
     2.8340      0.012500
     2.8345      0.013050
     2.8350      0.013470
     2.8355      0.013830
     2.8360      0.014200
     2.8365      0.014590
     2.8370      0.015000
     2.8375      0.015310
     2.8380      0.015570
     2.8385      0.015800
     2.8390      0.016180
     2.8395      0.016590
     2.8400      0.017050
     2.8405      0.017540
     2.8410      0.018050
     2.8415      0.018560
     2.8420      0.019130
     2.8425      0.019760
     2.8430      0.020530
     2.8435      0.021170
     2.8440      0.021740
     2.8445      0.022420
     2.8450      0.023400
     2.8455      0.024660
     2.8460      0.025520
     2.8465      0.026190
     2.8470      0.026560
     2.8475      0.027380
     2.8480      0.028330
     2.8485      0.029440
     2.8490      0.030420
     2.8495      0.031370
     2.8500      0.032430
     2.8505      0.033650
     2.8510      0.034990
     2.8515      0.036660
     2.8520      0.038240
     2.8525      0.039710
     2.8530      0.040580
     2.8535      0.041370
     2.8540      0.042170
     2.8545      0.043540
     2.8550      0.045220
     2.8555      0.047400
     2.8560      0.049720
     2.8565      0.052130
     2.8570      0.054410
     2.8575      0.056650
     2.8580      0.058820
     2.8585      0.061130
     2.8590      0.063500
     2.8595      0.066000
     2.8600      0.068820
     2.8605      0.071830
     2.8610      0.075180
     2.8615      0.078500
     2.8620      0.081810
     2.8625      0.085430
     2.8630      0.089280
     2.8635      0.093480
     2.8640      0.097860
     2.8645      0.102320
     2.8650      0.106930
     2.8655      0.111860
     2.8660      0.117010
     2.8665      0.122820
     2.8670      0.128810
     2.8675      0.135010
     2.8680      0.141770
     2.8685      0.148870
     2.8690      0.156620
     2.8695      0.164590
     2.8700      0.172720
     2.8705      0.181410
     2.8710      0.190660
     2.8715      0.200400
     2.8720      0.210820
     2.8725      0.221580
     2.8730      0.232890
     2.8735      0.244610
     2.8740      0.256580
     2.8745      0.269150
     2.8750      0.282370
     2.8755      0.296060
     2.8760      0.310370
     2.8765      0.324870
     2.8770      0.339660
     2.8775      0.354660
     2.8780      0.369720
     2.8785      0.384810
     2.8790      0.399970
     2.8795      0.415180
     2.8800      0.429950
     2.8805      0.444250
     2.8810      0.457840
     2.8815      0.470570
     2.8820      0.482890
     2.8825      0.494400
     2.8830      0.504530
     2.8835      0.513720
     2.8840      0.520010
     2.8845      0.525580
     2.8850      0.530020
     2.8855      0.533070
     2.8860      0.535200
     2.8865      0.534890
     2.8870      0.532920
     2.8875      0.529710
     2.8880      0.524760
     2.8885      0.519130
     2.8890      0.512380
     2.8895      0.504620
     2.8900      0.496380
     2.8905      0.487310
     2.8910      0.477740
     2.8915      0.467720
     2.8920      0.456980
     2.8925      0.446080
     2.8930      0.434970
     2.8935      0.423910
     2.8940      0.412870
     2.8945      0.401860
     2.8950      0.391100
     2.8955      0.380620
     2.8960      0.370360
     2.8965      0.360210
     2.8970      0.350270
     2.8975      0.340550
     2.8980      0.330980
     2.8985      0.321640
     2.8990      0.312660
     2.8995      0.304330
     2.9000      0.296100
     2.9005      0.287940
     2.9010      0.280050
     2.9015      0.272590
     2.9020      0.265580
     2.9025      0.258420
     2.9030      0.251400
     2.9035      0.244890
     2.9040      0.238810
     2.9045      0.233010
     2.9050      0.227240
     2.9055      0.221580
     2.9060      0.216100
     2.9065      0.210750
     2.9070      0.205550
     2.9075      0.201100
     2.9080      0.197040
     2.9085      0.193410
     2.9090      0.189630
     2.9095      0.185780
     2.9100      0.181790
     2.9105      0.177970
     2.9110      0.174260
     2.9115      0.170900
     2.9120      0.167630
     2.9125      0.164530
     2.9130      0.161640
     2.9135      0.158860
     2.9140      0.156340
     2.9145      0.153790
     2.9150      0.151190
     2.9155      0.148630
     2.9160      0.146120
     2.9165      0.143930
     2.9170      0.141770
     2.9175      0.139660
     2.9180      0.137430
     2.9185      0.135220
     2.9190      0.133220
     2.9195      0.131470
     2.9200      0.129910
     2.9205      0.128520
     2.9210      0.127160
     2.9215      0.125830
     2.9220      0.124220
     2.9225      0.122440
     2.9230      0.120530
     2.9235      0.118870
     2.9240      0.117710
     2.9245      0.116670
     2.9250      0.115660
     2.9255      0.114200
     2.9260      0.112670
     2.9265      0.111060
     2.9270      0.109640
     2.9275      0.108300
     2.9280      0.107300
     2.9285      0.106390
     2.9290      0.105610
     2.9295      0.104930
     2.9300      0.104270
     2.9305      0.103460
     2.9310      0.102610
     2.9315      0.101720
     2.9320      0.101040
     2.9325      0.100410
     2.9330      0.099750
     2.9335      0.098980
     2.9340      0.098090
     2.9345      0.097300
     2.9350      0.096620
     2.9355      0.096360
     2.9360      0.096160
     2.9365      0.096020
     2.9370      0.095440
     2.9375      0.094720
     2.9380      0.093630
     2.9385      0.092770
     2.9390      0.092130
     2.9395      0.092090
     2.9400      0.092130
     2.9405      0.092050
     2.9410      0.091700
     2.9415      0.091090
     2.9420      0.090380
     2.9425      0.089700
     2.9430      0.089290
     2.9435      0.089000
     2.9440      0.088820
     2.9445      0.088570
     2.9450      0.088330
     2.9455      0.088270
     2.9460      0.088240
     2.9465      0.088220
     2.9470      0.087930
     2.9475      0.087580
     2.9480      0.087290
     2.9485      0.087050
     2.9490      0.086880
     2.9495      0.086720
     2.9500      0.086550
     2.9505      0.086380
     2.9510      0.086150
     2.9515      0.085840
     2.9520      0.085840
     2.9525      0.085950
     2.9530      0.086440
     2.9535      0.086730
     2.9540      0.086720
     2.9545      0.086430
     2.9550      0.086020
     2.9555      0.085740
     2.9560      0.085480
     2.9565      0.085260
     2.9570      0.085050
     2.9575      0.084830
     2.9580      0.084870
     2.9585      0.084970
     2.9590      0.085230
     2.9595      0.085410
     2.9600      0.085520
     2.9605      0.085700
     2.9610      0.085940
     2.9615      0.086430
     2.9620      0.086820
     2.9625      0.087110
     2.9630      0.087250
     2.9635      0.087390
     2.9640      0.087760
     2.9645      0.088130
     2.9650      0.088490
     2.9655      0.088620
     2.9660      0.088680
     2.9665      0.088840
     2.9670      0.089020
     2.9675      0.089240
     2.9680      0.089340
     2.9685      0.089380
     2.9690      0.089600
     2.9695      0.089850
     2.9700      0.090210
     2.9705      0.090540
     2.9710      0.090850
     2.9715      0.091300
     2.9720      0.091780
     2.9725      0.092290
     2.9730      0.092790
     2.9735      0.093260
     2.9740      0.093640
     2.9745      0.093980
     2.9750      0.094150
     2.9755      0.094330
     2.9760      0.094570
     2.9765      0.094700
     2.9770      0.094760
     2.9775      0.094850
     2.9780      0.095070
     2.9785      0.095870
     2.9790      0.096790
     2.9795      0.097860
     2.9800      0.098510
     2.9805      0.099020
     2.9810      0.099170
     2.9815      0.099420
     2.9820      0.099880
     2.9825      0.100550
     2.9830      0.101340
     2.9835      0.102150
     2.9840      0.102940
     2.9845      0.103670
     2.9850      0.104310
     2.9855      0.104870
     2.9860      0.105590
     2.9865      0.106370
     2.9870      0.107090
     2.9875      0.107610
     2.9880      0.107660
     2.9885      0.107820
     2.9890      0.108060
     2.9895      0.108840
     2.9900      0.109750
     2.9905      0.110810
     2.9910      0.111890
     2.9915      0.112990
     2.9920      0.113960
     2.9925      0.114860
     2.9930      0.115510
     2.9935      0.116160
     2.9940      0.116870
     2.9945      0.117520
     2.9950      0.118140
     2.9955      0.118620
     2.9960      0.119080
     2.9965      0.119830
     2.9970      0.120700
     2.9975      0.121850
     2.9980      0.123020
     2.9985      0.124200
     2.9990      0.125080
     2.9995      0.125890
     3.0000      0.126530
     3.0005      0.127320
     3.0010      0.128350
     3.0015      0.129570
     3.0020      0.130900
     3.0025      0.132000
     3.0030      0.133010
     3.0035      0.133680
     3.0040      0.134420
     3.0045      0.135260
     3.0050      0.136400
     3.0055      0.137670
     3.0060      0.138990
     3.0065      0.140330
     3.0070      0.141680
     3.0075      0.142970
     3.0080      0.144190
     3.0085      0.145240
     3.0090      0.146220
     3.0095      0.147340
     3.0100      0.148500
     3.0105      0.149750
     3.0110      0.151030
     3.0115      0.152340
     3.0120      0.153680
     3.0125      0.155040
     3.0130      0.156400
     3.0135      0.157770
     3.0140      0.159200
     3.0145      0.160540
     3.0150      0.161780
     3.0155      0.163010
     3.0160      0.164250
     3.0165      0.166010
     3.0170      0.167820
     3.0175      0.169720
     3.0180      0.171520
     3.0185      0.173190
     3.0190      0.175030
     3.0195      0.176930
     3.0200      0.178860
     3.0205      0.180730
     3.0210      0.182280
     3.0215      0.183790
     3.0220      0.185250
     3.0225      0.186830
     3.0230      0.188480
     3.0235      0.190130
     3.0240      0.191760
     3.0245      0.193290
     3.0250      0.194930
     3.0255      0.196760
     3.0260      0.198720
     3.0265      0.200760
     3.0270      0.202460
     3.0275      0.204100
     3.0280      0.205770
     3.0285      0.207580
     3.0290      0.209710
     3.0295      0.211860
     3.0300      0.214030
     3.0305      0.216090
     3.0310      0.218100
     3.0315      0.219910
     3.0320      0.221740
     3.0325      0.223700
     3.0330      0.225870
     3.0335      0.228320
     3.0340      0.230810
     3.0345      0.233310
     3.0350      0.235660
     3.0355      0.238000
     3.0360      0.240490
     3.0365      0.242950
     3.0370      0.245360
     3.0375      0.247570
     3.0380      0.249600
     3.0385      0.251780
     3.0390      0.253990
     3.0395      0.256300
     3.0400      0.258600
     3.0405      0.260880
     3.0410      0.263230
     3.0415      0.265690
     3.0420      0.268020
     3.0425      0.270300
     3.0430      0.272870
     3.0435      0.275520
     3.0440      0.278370
     3.0445      0.280980
     3.0450      0.282990
     3.0455      0.285060
     3.0460      0.287190
     3.0465      0.289810
     3.0470      0.292650
     3.0475      0.295200
     3.0480      0.297700
     3.0485      0.300040
     3.0490      0.302500
     3.0495      0.305180
     3.0500      0.307860
     3.0505      0.310550
     3.0510      0.313020
     3.0515      0.315420
     3.0520      0.317520
     3.0525      0.319640
     3.0530      0.321880
     3.0535      0.324290
     3.0540      0.326980
     3.0545      0.329380
     3.0550      0.331550
     3.0555      0.333260
     3.0560      0.334830
     3.0565      0.337060
     3.0570      0.339420
     3.0575      0.342350
     3.0580      0.345220
     3.0585      0.347960
     3.0590      0.350360
     3.0595      0.352490
     3.0600      0.354340
     3.0605      0.356100
     3.0610      0.357940
     3.0615      0.359800
     3.0620      0.361710
     3.0625      0.363600
     3.0630      0.365440
     3.0635      0.367280
     3.0640      0.369110
     3.0645      0.370830
     3.0650      0.372490
     3.0655      0.373780
     3.0660      0.375040
     3.0665      0.376440
     3.0670      0.377910
     3.0675      0.379600
     3.0680      0.381190
     3.0685      0.382660
     3.0690      0.384120
     3.0695      0.385580
     3.0700      0.386710
     3.0705      0.387760
     3.0710      0.388630
     3.0715      0.389590
     3.0720      0.391010
     3.0725      0.392300
     3.0730      0.393380
     3.0735      0.394090
     3.0740      0.394480
     3.0745      0.394910
     3.0750      0.395350
     3.0755      0.396260
     3.0760      0.397240
     3.0765      0.398370
     3.0770      0.399320
     3.0775      0.399760
     3.0780      0.400040
     3.0785      0.400110
     3.0790      0.400290
     3.0795      0.400550
     3.0800      0.400720
     3.0805      0.400870
     3.0810      0.401030
     3.0815      0.401200
     3.0820      0.401540
     3.0825      0.401750
     3.0830      0.401570
     3.0835      0.401220
     3.0840      0.400650
     3.0845      0.400410
     3.0850      0.400400
     3.0855      0.400520
     3.0860      0.400680
     3.0865      0.400630
     3.0870      0.400560
     3.0875      0.400470
     3.0880      0.400290
     3.0885      0.399870
     3.0890      0.399390
     3.0895      0.398800
     3.0900      0.398170
     3.0905      0.397510
     3.0910      0.396760
     3.0915      0.395980
     3.0920      0.395330
     3.0925      0.394700
     3.0930      0.394120
     3.0935      0.393560
     3.0940      0.393070
     3.0945      0.392510
     3.0950      0.391840
     3.0955      0.390910
     3.0960      0.389730
     3.0965      0.388750
     3.0970      0.387860
     3.0975      0.387280
     3.0980      0.386780
     3.0985      0.386030
     3.0990      0.385260
     3.0995      0.384370
     3.1000      0.383510
     3.1005      0.382680
     3.1010      0.381910
     3.1015      0.381230
     3.1020      0.380570
     3.1025      0.379950
     3.1030      0.379130
     3.1035      0.378210
     3.1040      0.377270
     3.1045      0.376330
     3.1050      0.375560
     3.1055      0.374780
     3.1060      0.373790
     3.1065      0.372720
     3.1070      0.371370
     3.1075      0.370000
     3.1080      0.368570
     3.1085      0.367190
     3.1090      0.365860
     3.1095      0.364690
     3.1100      0.363590
     3.1105      0.362760
     3.1110      0.361980
     3.1115      0.361150
     3.1120      0.360320
     3.1125      0.359390
     3.1130      0.358510
     3.1135      0.357810
     3.1140      0.356960
     3.1145      0.355810
     3.1150      0.354370
     3.1155      0.352580
     3.1160      0.351050
     3.1165      0.349720
     3.1170      0.348880
     3.1175      0.348240
     3.1180      0.347600
     3.1185      0.346970
     3.1190      0.345860
     3.1195      0.344700
     3.1200      0.343160
     3.1205      0.341640
     3.1210      0.340220
     3.1215      0.338910
     3.1220      0.337820
     3.1225      0.336920
     3.1230      0.336250
     3.1235      0.335520
     3.1240      0.334750
     3.1245      0.333600
     3.1250      0.332290
     3.1255      0.331260
     3.1260      0.330310
     3.1265      0.329590
     3.1270      0.328870
     3.1275      0.327590
     3.1280      0.326280
     3.1285      0.324830
     3.1290      0.323400
     3.1295      0.322010
     3.1300      0.320710
     3.1305      0.319590
     3.1310      0.318630
     3.1315      0.317850
     3.1320      0.317050
     3.1325      0.316230
     3.1330      0.315160
     3.1335      0.314000
     3.1340      0.312450
     3.1345      0.310810
     3.1350      0.309470
     3.1355      0.308180
     3.1360      0.307250
     3.1365      0.306310
     3.1370      0.305260
     3.1375      0.304320
     3.1380      0.303750
     3.1385      0.303070
     3.1390      0.302150
     3.1395      0.300880
     3.1400      0.299140
     3.1405      0.297660
     3.1410      0.296420
     3.1415      0.295470
     3.1420      0.294700
     3.1425      0.293790
     3.1430      0.292810
     3.1435      0.291580
     3.1440      0.290290
     3.1445      0.288970
     3.1450      0.287640
     3.1455      0.286660
     3.1460      0.285680
     3.1465      0.284610
     3.1470      0.283490
     3.1475      0.282070
     3.1480      0.280690
     3.1485      0.279410
     3.1490      0.278260
     3.1495      0.277350
     3.1500      0.276470
     3.1505      0.275630
     3.1510      0.274520
     3.1515      0.273150
     3.1520      0.271600
     3.1525      0.269930
     3.1530      0.268680
     3.1535      0.267610
     3.1540      0.266670
     3.1545      0.265770
     3.1550      0.264470
     3.1555      0.263110
     3.1560      0.261890
     3.1565      0.260690
     3.1570      0.260020
     3.1575      0.259320
     3.1580      0.258320
     3.1585      0.257230
     3.1590      0.255680
     3.1595      0.254280
     3.1600      0.253320
     3.1605      0.252390
     3.1610      0.251520
     3.1615      0.250440
     3.1620      0.249010
     3.1625      0.247710
     3.1630      0.246550
     3.1635      0.245540
     3.1640      0.244660
     3.1645      0.243850
     3.1650      0.243080
     3.1655      0.242140
     3.1660      0.241120
     3.1665      0.239780
     3.1670      0.238320
     3.1675      0.237140
     3.1680      0.236030
     3.1685      0.235040
     3.1690      0.234070
     3.1695      0.233070
     3.1700      0.232070
     3.1705      0.231140
     3.1710      0.230210
     3.1715      0.229090
     3.1720      0.227950
     3.1725      0.226650
     3.1730      0.225350
     3.1735      0.224090
     3.1740      0.222990
     3.1745      0.222430
     3.1750      0.221930
     3.1755      0.221600
     3.1760      0.221010
     3.1765      0.219930
     3.1770      0.218790
     3.1775      0.217570
     3.1780      0.216380
     3.1785      0.215260
     3.1790      0.214200
     3.1795      0.213200
     3.1800      0.212330
     3.1805      0.211550
     3.1810      0.210590
     3.1815      0.209510
     3.1820      0.208420
     3.1825      0.207340
     3.1830      0.206470
     3.1835      0.205700
     3.1840      0.204740
     3.1845      0.203710
     3.1850      0.202590
     3.1855      0.201450
     3.1860      0.200640
     3.1865      0.199890
     3.1870      0.199240
     3.1875      0.198610
     3.1880      0.197830
     3.1885      0.197030
     3.1890      0.196320
     3.1895      0.195610
     3.1900      0.194980
     3.1905      0.194340
     3.1910      0.193720
     3.1915      0.193100
     3.1920      0.192420
     3.1925      0.191710
     3.1930      0.190750
     3.1935      0.189800
     3.1940      0.188880
     3.1945      0.188000
     3.1950      0.187330
     3.1955      0.186640
     3.1960      0.185860
     3.1965      0.185020
     3.1970      0.183960
     3.1975      0.182950
     3.1980      0.182140
     3.1985      0.181450
     3.1990      0.181050
     3.1995      0.180590
     3.2000      0.179970
     3.2005      0.179240
     3.2010      0.178300
     3.2015      0.177390
     3.2020      0.176540
     3.2025      0.175800
     3.2030      0.175230
     3.2035      0.174650
     3.2040      0.174040
     3.2045      0.173400
     3.2050      0.172690
     3.2055      0.172090
     3.2060      0.171620
     3.2065      0.171060
     3.2070      0.170400
     3.2075      0.169740
     3.2080      0.169100
     3.2085      0.168520
     3.2090      0.168000
     3.2095      0.167230
     3.2100      0.166210
     3.2105      0.165440
     3.2110      0.164910
     3.2115      0.164650
     3.2120      0.164660
     3.2125      0.164330
     3.2130      0.163720
     3.2135      0.162950
     3.2140      0.162070
     3.2145      0.161370
     3.2150      0.160830
     3.2155      0.160410
     3.2160      0.160090
     3.2165      0.159660
     3.2170      0.159130
     3.2175      0.158480
     3.2180      0.157740
     3.2185      0.156910
     3.2190      0.156020
     3.2195      0.155110
     3.2200      0.154190
     3.2205      0.153710
     3.2210      0.153540
     3.2215      0.153740
     3.2220      0.154200
     3.2225      0.154430
     3.2230      0.154490
     3.2235      0.154130
     3.2240      0.153480
     3.2245      0.152670
     3.2250      0.151750
     3.2255      0.150900
     3.2260      0.150100
     3.2265      0.149450
     3.2270      0.148900
     3.2275      0.148510
     3.2280      0.148240
     3.2285      0.147950
     3.2290      0.147640
     3.2295      0.147210
     3.2300      0.146690
     3.2305      0.146160
     3.2310      0.145630
     3.2315      0.145240
     3.2320      0.144990
     3.2325      0.144900
     3.2330      0.144980
     3.2335      0.144960
     3.2340      0.144810
     3.2345      0.144390
     3.2350      0.143620
     3.2355      0.142820
     3.2360      0.142000
     3.2365      0.141390
     3.2370      0.141080
     3.2375      0.140790
     3.2380      0.140500
     3.2385      0.140130
     3.2390      0.139610
     3.2395      0.139260
     3.2400      0.139220
     3.2405      0.139320
     3.2410      0.139730
     3.2415      0.140070
     3.2420      0.140220
     3.2425      0.140190
     3.2430      0.139670
     3.2435      0.139090
     3.2440      0.138290
     3.2445      0.137570
     3.2450      0.137110
     3.2455      0.136630
     3.2460      0.136080
     3.2465      0.135500
     3.2470      0.134830
     3.2475      0.134230
     3.2480      0.134200
     3.2485      0.134190
     3.2490      0.134390
     3.2495      0.134570
     3.2500      0.134130
     3.2505      0.133700
     3.2510      0.133120
     3.2515      0.132540
     3.2520      0.132470
     3.2525      0.132420
     3.2530      0.132380
     3.2535      0.132350
     3.2540      0.132000
     3.2545      0.131620
     3.2550      0.131250
     3.2555      0.130890
     3.2560      0.130730
     3.2565      0.130610
     3.2570      0.130420
     3.2575      0.130190
     3.2580      0.129780
     3.2585      0.129280
     3.2590      0.129030
     3.2595      0.128890
     3.2600      0.128730
     3.2605      0.128540
     3.2610      0.128080
     3.2615      0.127390
     3.2620      0.127110
     3.2625      0.127220
     3.2630      0.127590
     3.2635      0.128240
     3.2640      0.128530
     3.2645      0.128280
     3.2650      0.127880
     3.2655      0.127200
     3.2660      0.126580
     3.2665      0.126110
     3.2670      0.125690
     3.2675      0.125380
     3.2680      0.125150
     3.2685      0.125280
     3.2690      0.125440
     3.2695      0.125760
     3.2700      0.126040
     3.2705      0.125660
     3.2710      0.125280
     3.2715      0.124580
     3.2720      0.123880
     3.2725      0.123790
     3.2730      0.123730
     3.2735      0.123860
     3.2740      0.124010
     3.2745      0.123920
     3.2750      0.123770
     3.2755      0.123640
     3.2760      0.123510
     3.2765      0.123440
     3.2770      0.123390
     3.2775      0.123280
     3.2780      0.123110
     3.2785      0.122870
     3.2790      0.122560
     3.2795      0.122270
     3.2800      0.121990
     3.2805      0.121830
     3.2810      0.121860
     3.2815      0.121910
     3.2820      0.122010
     3.2825      0.122040
     3.2830      0.121760
     3.2835      0.121500
     3.2840      0.121320
     3.2845      0.121160
     3.2850      0.121410
     3.2855      0.121650
     3.2860      0.121690
     3.2865      0.121720
     3.2870      0.121390
     3.2875      0.121020
     3.2880      0.120590
     3.2885      0.120150
     3.2890      0.119800
     3.2895      0.119480
     3.2900      0.119240
     3.2905      0.119030
     3.2910      0.118860
     3.2915      0.118720
     3.2920      0.118620
     3.2925      0.118590
     3.2930      0.118520
     3.2935      0.118380
     3.2940      0.118250
     3.2945      0.118140
     3.2950      0.118070
     3.2955      0.118240
     3.2960      0.118420
     3.2965      0.118670
     3.2970      0.118920
     3.2975      0.118990
     3.2980      0.119060
     3.2985      0.118790
     3.2990      0.118490
     3.2995      0.118380
     3.3000      0.118320
     3.3005      0.118640
     3.3010      0.119130
     3.3015      0.119330
     3.3020      0.119350
     3.3025      0.119120
     3.3030      0.118650
     3.3035      0.118280
     3.3040      0.118050
     3.3045      0.117840
     3.3050      0.117690
     3.3055      0.117530
     3.3060      0.117380
     3.3065      0.117230
     3.3070      0.117200
     3.3075      0.117170
     3.3080      0.117230
     3.3085      0.117300
     3.3090      0.117360
     3.3095      0.117430
     3.3100      0.117350
     3.3105      0.117230
     3.3110      0.117070
     3.3115      0.116900
     3.3120      0.116850
     3.3125      0.116920
     3.3130      0.117120
     3.3135      0.117510
     3.3140      0.117870
     3.3145      0.118160
     3.3150      0.118360
     3.3155      0.117990
     3.3160      0.117620
     3.3165      0.117340
     3.3170      0.117050
     3.3175      0.117530
     3.3180      0.118090
     3.3185      0.118460
     3.3190      0.118770
     3.3195      0.118580
     3.3200      0.118140
     3.3205      0.117880
     3.3210      0.117780
     3.3215      0.117880
     3.3220      0.118270
     3.3225      0.118580
     3.3230      0.118650
     3.3235      0.118680
     3.3240      0.118450
     3.3245      0.118220
     3.3250      0.117980
     3.3255      0.117730
     3.3260      0.117810
     3.3265      0.117930
     3.3270      0.118450
     3.3275      0.119110
     3.3280      0.119510
     3.3285      0.119770
     3.3290      0.119770
     3.3295      0.119490
     3.3300      0.119330
     3.3305      0.119390
     3.3310      0.119450
     3.3315      0.119580
     3.3320      0.119680
     3.3325      0.119370
     3.3330      0.119070
     3.3335      0.119010
     3.3340      0.118960
     3.3345      0.119390
     3.3350      0.119950
     3.3355      0.120350
     3.3360      0.120650
     3.3365      0.120900
     3.3370      0.121110
     3.3375      0.121450
     3.3380      0.122050
     3.3385      0.122550
     3.3390      0.122640
     3.3395      0.122710
     3.3400      0.122460
     3.3405      0.122210
     3.3410      0.122390
     3.3415      0.122620
     3.3420      0.122870
     3.3425      0.123110
     3.3430      0.123310
     3.3435      0.123460
     3.3440      0.123650
     3.3445      0.123890
     3.3450      0.124090
     3.3455      0.124200
     3.3460      0.124320
     3.3465      0.124550
     3.3470      0.124770
     3.3475      0.125120
     3.3480      0.125480
     3.3485      0.125850
     3.3490      0.126230
     3.3495      0.126760
     3.3500      0.127400
     3.3505      0.127990
     3.3510      0.128540
     3.3515      0.128950
     3.3520      0.129020
     3.3525      0.129090
     3.3530      0.129180
     3.3535      0.129280
     3.3540      0.129690
     3.3545      0.130110
     3.3550      0.130610
     3.3555      0.131140
     3.3560      0.131560
     3.3565      0.131910
     3.3570      0.132130
     3.3575      0.132170
     3.3580      0.132230
     3.3585      0.132330
     3.3590      0.132460
     3.3595      0.132870
     3.3600      0.133280
     3.3605      0.133800
     3.3610      0.134340
     3.3615      0.134860
     3.3620      0.135370
     3.3625      0.135840
     3.3630      0.136280
     3.3635      0.136710
     3.3640      0.137130
     3.3645      0.137550
     3.3650      0.137900
     3.3655      0.138260
     3.3660      0.138780
     3.3665      0.139300
     3.3670      0.140050
     3.3675      0.140850
     3.3680      0.141550
     3.3685      0.142200
     3.3690      0.142780
     3.3695      0.143290
     3.3700      0.143820
     3.3705      0.144420
     3.3710      0.145040
     3.3715      0.145830
     3.3720      0.146620
     3.3725      0.147130
     3.3730      0.147600
     3.3735      0.147710
     3.3740      0.147660
     3.3745      0.147930
     3.3750      0.148540
     3.3755      0.149310
     3.3760      0.150500
     3.3765      0.151640
     3.3770      0.152390
     3.3775      0.153150
     3.3780      0.153810
     3.3785      0.154460
     3.3790      0.155260
     3.3795      0.156110
     3.3800      0.156870
     3.3805      0.157530
     3.3810      0.158090
     3.3815      0.158420
     3.3820      0.158770
     3.3825      0.159400
     3.3830      0.160030
     3.3835      0.161130
     3.3840      0.162280
     3.3845      0.163400
     3.3850      0.164490
     3.3855      0.165590
     3.3860      0.166720
     3.3865      0.167910
     3.3870      0.169280
     3.3875      0.170640
     3.3880      0.171820
     3.3885      0.173000
     3.3890      0.173910
     3.3895      0.174760
     3.3900      0.175630
     3.3905      0.176530
     3.3910      0.177450
     3.3915      0.178420
     3.3920      0.179340
     3.3925      0.179970
     3.3930      0.180600
     3.3935      0.181310
     3.3940      0.182030
     3.3945      0.183070
     3.3950      0.184240
     3.3955      0.185400
     3.3960      0.186560
     3.3965      0.187740
     3.3970      0.188960
     3.3975      0.190200
     3.3980      0.191590
     3.3985      0.192990
     3.3990      0.194290
     3.3995      0.195570
     3.4000      0.196810
     3.4005      0.198030
     3.4010      0.199340
     3.4015      0.200810
     3.4020      0.202310
     3.4025      0.204000
     3.4030      0.205690
     3.4035      0.207100
     3.4040      0.208490
     3.4045      0.209660
     3.4050      0.210730
     3.4055      0.211860
     3.4060      0.213060
     3.4065      0.214300
     3.4070      0.215670
     3.4075      0.217040
     3.4080      0.218600
     3.4085      0.220160
     3.4090      0.222040
     3.4095      0.224040
     3.4100      0.226020
     3.4105      0.227960
     3.4110      0.229750
     3.4115      0.231110
     3.4120      0.232460
     3.4125      0.234210
     3.4130      0.235960
     3.4135      0.238110
     3.4140      0.240400
     3.4145      0.242370
     3.4150      0.244030
     3.4155      0.245620
     3.4160      0.247000
     3.4165      0.248380
     3.4170      0.249980
     3.4175      0.251590
     3.4180      0.253470
     3.4185      0.255450
     3.4190      0.257550
     3.4195      0.259780
     3.4200      0.261890
     3.4205      0.263640
     3.4210      0.265390
     3.4215      0.267330
     3.4220      0.269280
     3.4225      0.271810
     3.4230      0.274560
     3.4235      0.277230
     3.4240      0.279800
     3.4245      0.282230
     3.4250      0.284080
     3.4255      0.285930
     3.4260      0.288040
     3.4265      0.290170
     3.4270      0.292870
     3.4275      0.295850
     3.4280      0.298610
     3.4285      0.301040
     3.4290      0.303370
     3.4295      0.305090
     3.4300      0.306800
     3.4305      0.309190
     3.4310      0.311660
     3.4315      0.314430
     3.4320      0.317380
     3.4325      0.320210
     3.4330      0.322790
     3.4335      0.325380
     3.4340      0.327910
     3.4345      0.330450
     3.4350      0.333250
     3.4355      0.336110
     3.4360      0.338970
     3.4365      0.341830
     3.4370      0.344570
     3.4375      0.346970
     3.4380      0.349360
     3.4385      0.351830
     3.4390      0.354300
     3.4395      0.357240
     3.4400      0.360400
     3.4405      0.363560
     3.4410      0.366710
     3.4415      0.369780
     3.4420      0.372210
     3.4425      0.374640
     3.4430      0.377020
     3.4435      0.379400
     3.4440      0.382100
     3.4445      0.385100
     3.4450      0.388160
     3.4455      0.391440
     3.4460      0.394730
     3.4465      0.397940
     3.4470      0.401150
     3.4475      0.404440
     3.4480      0.407780
     3.4485      0.411020
     3.4490      0.414090
     3.4495      0.417120
     3.4500      0.419660
     3.4505      0.422190
     3.4510      0.424930
     3.4515      0.427740
     3.4520      0.430590
     3.4525      0.433490
     3.4530      0.436400
     3.4535      0.439330
     3.4540      0.442250
     3.4545      0.445630
     3.4550      0.449070
     3.4555      0.452090
     3.4560      0.454800
     3.4565      0.457380
     3.4570      0.459620
     3.4575      0.461850
     3.4580      0.465010
     3.4585      0.468190
     3.4590      0.471290
     3.4595      0.474340
     3.4600      0.477130
     3.4605      0.479470
     3.4610      0.481810
     3.4615      0.484330
     3.4620      0.486860
     3.4625      0.489550
     3.4630      0.492300
     3.4635      0.494940
     3.4640      0.497420
     3.4645      0.499850
     3.4650      0.501910
     3.4655      0.503970
     3.4660      0.506050
     3.4665      0.508140
     3.4670      0.510230
     3.4675      0.512320
     3.4680      0.514420
     3.4685      0.516600
     3.4690      0.518770
     3.4695      0.521260
     3.4700      0.523810
     3.4705      0.526060
     3.4710      0.528030
     3.4715      0.529950
     3.4720      0.531660
     3.4725      0.533380
     3.4730      0.535390
     3.4735      0.537460
     3.4740      0.539150
     3.4745      0.540540
     3.4750      0.541900
     3.4755      0.543190
     3.4760      0.544480
     3.4765      0.545700
     3.4770      0.546900
     3.4775      0.547870
     3.4780      0.548640
     3.4785      0.549550
     3.4790      0.550930
     3.4795      0.552310
     3.4800      0.553270
     3.4805      0.554170
     3.4810      0.554590
     3.4815      0.554610
     3.4820      0.554680
     3.4825      0.554960
     3.4830      0.555230
     3.4835      0.555410
     3.4840      0.555580
     3.4845      0.555510
     3.4850      0.555240
     3.4855      0.555010
     3.4860      0.554960
     3.4865      0.554920
     3.4870      0.555410
     3.4875      0.555990
     3.4880      0.556200
     3.4885      0.556040
     3.4890      0.555740
     3.4895      0.554620
     3.4900      0.553490
     3.4905      0.552670
     3.4910      0.551920
     3.4915      0.551110
     3.4920      0.550230
     3.4925      0.549310
     3.4930      0.548060
     3.4935      0.546800
     3.4940      0.545450
     3.4945      0.544070
     3.4950      0.542650
     3.4955      0.541190
     3.4960      0.539750
     3.4965      0.538950
     3.4970      0.538160
     3.4975      0.537290
     3.4980      0.536390
     3.4985      0.535070
     3.4990      0.532880
     3.4995      0.530690
     3.5000      0.527520
     3.5005      0.524300
     3.5010      0.521350
     3.5015      0.518580
     3.5020      0.516230
     3.5025      0.515320
     3.5030      0.514410
     3.5035      0.513320
     3.5040      0.512200
     3.5045      0.510080
     3.5050      0.506960
     3.5055      0.503890
     3.5060      0.501130
     3.5065      0.498380
     3.5070      0.496480
     3.5075      0.494850
     3.5080      0.493080
     3.5085      0.491060
     3.5090      0.489040
     3.5095      0.486020
     3.5100      0.482990
     3.5105      0.480090
     3.5110      0.477250
     3.5115      0.474730
     3.5120      0.473100
     3.5125      0.471480
     3.5130      0.468860
     3.5135      0.466100
     3.5140      0.462910
     3.5145      0.459280
     3.5150      0.455840
     3.5155      0.453950
     3.5160      0.452060
     3.5165      0.449940
     3.5170      0.447730
     3.5175      0.445050
     3.5180      0.441490
     3.5185      0.437930
     3.5190      0.435040
     3.5195      0.432170
     3.5200      0.429690
     3.5205      0.427510
     3.5210      0.425300
     3.5215      0.422930
     3.5220      0.420560
     3.5225      0.418070
     3.5230      0.415540
     3.5235      0.413160
     3.5240      0.410990
     3.5245      0.408830
     3.5250      0.406650
     3.5255      0.404470
     3.5260      0.401920
     3.5265      0.399120
     3.5270      0.396360
     3.5275      0.393700
     3.5280      0.391040
     3.5285      0.388850
     3.5290      0.386770
     3.5295      0.384730
     3.5300      0.382750
     3.5305      0.380770
     3.5310      0.378210
     3.5315      0.375640
     3.5320      0.373010
     3.5325      0.370320
     3.5330      0.367780
     3.5335      0.365830
     3.5340      0.363890
     3.5345      0.361630
     3.5350      0.359280
     3.5355      0.356950
     3.5360      0.354640
     3.5365      0.352340
     3.5370      0.350910
     3.5375      0.349530
     3.5380      0.347280
     3.5385      0.344290
     3.5390      0.341170
     3.5395      0.337220
     3.5400      0.333280
     3.5405      0.330490
     3.5410      0.328170
     3.5415      0.326050
     3.5420      0.324380
     3.5425      0.322710
     3.5430      0.321260
     3.5435      0.319850
     3.5440      0.318460
     3.5445      0.317070
     3.5450      0.315670
     3.5455      0.313690
     3.5460      0.311710
     3.5465      0.310260
     3.5470      0.309160
     3.5475      0.308130
     3.5480      0.307400
     3.5485      0.306670
     3.5490      0.304730
     3.5495      0.302380
     3.5500      0.300100
     3.5505      0.297980
     3.5510      0.295850
     3.5515      0.295050
     3.5520      0.294400
     3.5525      0.293250
     3.5530      0.291480
     3.5535      0.289690
     3.5540      0.287010
     3.5545      0.284340
     3.5550      0.282130
     3.5555      0.280250
     3.5560      0.278300
     3.5565      0.275960
     3.5570      0.273610
     3.5575      0.271500
     3.5580      0.269480
     3.5585      0.267900
     3.5590      0.267510
     3.5595      0.267120
     3.5600      0.266150
     3.5605      0.265060
     3.5610      0.263410
     3.5615      0.260860
     3.5620      0.258310
     3.5625      0.256690
     3.5630      0.255140
     3.5635      0.254380
     3.5640      0.254470
     3.5645      0.254530
     3.5650      0.253960
     3.5655      0.253380
     3.5660      0.252190
     3.5665      0.250550
     3.5670      0.248990
     3.5675      0.247940
     3.5680      0.246900
     3.5685      0.246510
     3.5690      0.246430
     3.5695      0.246300
     3.5700      0.245990
     3.5705      0.245690
     3.5710      0.244350
     3.5715      0.242680
