# author : Oliver Czoske
# source : Ester Aranzana
# date_created : 2017-11-20
# date_modified : 2025-12-16
# status : Measured at 80 K
# wavelength_unit : um
# changes :
# - 2022-03-17 (KL) Updated to match Rics email
# - 2023-06-06 (RD) Modified profiles after discussion with Schott
# - 2025-12-16 (OC) Replaced with measured values
#
 wavelength  transmission
     0.4990      0.001570
     0.4995      0.001570
     0.5000      0.002960
     0.5005      0.009750
     0.5010      0.003960
     0.5015      0.006300
     0.5020      0.024510
     0.5025      0.005590
     0.5030      0.000000
     0.5035      0.000000
     0.5040      0.000000
     0.5045      0.015970
     0.5050      0.017160
     0.5055      0.026530
     0.5060      0.020320
     0.5065      0.015740
     0.5070      0.022710
     0.5075      0.011370
     0.5080      0.002990
     0.5085      0.004950
     0.5090      0.002460
     0.5095      0.001340
     0.5100      0.000880
     0.5105      0.002940
     0.5110      0.000410
     0.5115      0.000000
     0.5120      0.000000
     0.5125      0.007100
     0.5130      0.010040
     0.5135      0.003530
     0.5140      0.000000
     0.5145      0.000000
     0.5150      0.000000
     0.5155      0.000000
     0.5160      0.006330
     0.5165      0.000980
     0.5170      0.002560
     0.5175      0.000000
     0.5180      0.000000
     0.5185      0.000000
     0.5190      0.000000
     0.5195      0.000000
     0.5200      0.001250
     0.5205      0.004000
     0.5210      0.010690
     0.5215      0.014780
     0.5220      0.005550
     0.5225      0.006730
     0.5230      0.008340
     0.5235      0.010940
     0.5240      0.000480
     0.5245      0.000000
     0.5250      0.000000
     0.5255      0.000000
     0.5260      0.000000
     0.5265      0.000000
     0.5270      0.000000
     0.5275      0.000000
     0.5280      0.000000
     0.5285      0.012510
     0.5290      0.072360
     0.5295      0.210330
     0.5300      0.349820
     0.5305      0.420710
     0.5310      0.447850
     0.5315      0.411420
     0.5320      0.292870
     0.5325      0.225350
     0.5330      0.208160
     0.5335      0.193610
     0.5340      0.145970
     0.5345      0.109780
     0.5350      0.085210
     0.5355      0.086320
     0.5360      0.106700
     0.5365      0.167210
     0.5370      0.316240
     0.5375      0.456850
     0.5380      0.390470
     0.5385      0.334940
     0.5390      0.352500
     0.5395      0.446890
     0.5400      0.510140
     0.5405      0.471000
     0.5410      0.386160
     0.5415      0.351530
     0.5420      0.304230
     0.5425      0.203780
     0.5430      0.123860
     0.5435      0.084650
     0.5440      0.070990
     0.5445      0.070630
     0.5450      0.080740
     0.5455      0.113600
     0.5460      0.197610
     0.5465      0.373310
     0.5470      0.571550
     0.5475      0.612910
     0.5480      0.555610
     0.5485      0.497070
     0.5490      0.430740
     0.5495      0.392530
     0.5500      0.381660
     0.5505      0.389490
     0.5510      0.417650
     0.5515      0.437830
     0.5520      0.459760
     0.5525      0.498520
     0.5530      0.534960
     0.5535      0.534500
     0.5540      0.492270
     0.5545      0.450740
     0.5550      0.437200
     0.5555      0.440040
     0.5560      0.403700
     0.5565      0.324550
     0.5570      0.261120
     0.5575      0.224830
     0.5580      0.229180
     0.5585      0.272120
     0.5590      0.362350
     0.5595      0.459000
     0.5600      0.497570
     0.5605      0.498390
     0.5610      0.523210
     0.5615      0.600910
     0.5620      0.694110
     0.5625      0.683850
     0.5630      0.611530
     0.5635      0.533090
     0.5640      0.508340
     0.5645      0.515490
     0.5650      0.513780
     0.5655      0.491150
     0.5660      0.473380
     0.5665      0.486790
     0.5670      0.543690
     0.5675      0.629050
     0.5680      0.671850
     0.5685      0.645460
     0.5690      0.588100
     0.5695      0.541420
     0.5700      0.492780
     0.5705      0.415180
     0.5710      0.325930
     0.5715      0.251630
     0.5720      0.210930
     0.5725      0.201510
     0.5730      0.218500
     0.5735      0.267300
     0.5740      0.342750
     0.5745      0.426250
     0.5750      0.476310
     0.5755      0.491840
     0.5760      0.511800
     0.5765      0.559860
     0.5770      0.617110
     0.5775      0.657190
     0.5780      0.655030
     0.5785      0.648780
     0.5790      0.673040
     0.5795      0.698550
     0.5800      0.635680
     0.5805      0.484130
     0.5810      0.349850
     0.5815      0.277360
     0.5820      0.254890
     0.5825      0.280370
     0.5830      0.346070
     0.5835      0.398040
     0.5840      0.339790
     0.5845      0.227580
     0.5850      0.155230
     0.5855      0.119340
     0.5860      0.105540
     0.5865      0.109190
     0.5870      0.123420
     0.5875      0.155250
     0.5880      0.209710
     0.5885      0.290660
     0.5890      0.387770
     0.5895      0.442050
     0.5900      0.402660
     0.5905      0.322770
     0.5910      0.267190
     0.5915      0.251040
     0.5920      0.271490
     0.5925      0.327710
     0.5930      0.392150
     0.5935      0.381760
     0.5940      0.301150
     0.5945      0.237790
     0.5950      0.209970
     0.5955      0.217490
     0.5960      0.259460
     0.5965      0.340680
     0.5970      0.450920
     0.5975      0.535650
     0.5980      0.575630
     0.5985      0.559620
     0.5990      0.464250
     0.5995      0.324440
     0.6000      0.216600
     0.6005      0.160110
     0.6010      0.136630
     0.6015      0.135360
     0.6020      0.143930
     0.6025      0.135080
     0.6030      0.102410
     0.6035      0.072570
     0.6040      0.054410
     0.6045      0.047930
     0.6050      0.047720
     0.6055      0.055720
     0.6060      0.078960
     0.6065      0.136960
     0.6070      0.258680
     0.6075      0.398600
     0.6080      0.442020
     0.6085      0.443820
     0.6090      0.364400
     0.6095      0.195470
     0.6100      0.094030
     0.6105      0.053400
     0.6110      0.036840
     0.6115      0.029070
     0.6120      0.022570
     0.6125      0.015230
     0.6130      0.007880
     0.6135      0.003740
     0.6140      0.001430
     0.6145      0.000310
     0.6150      0.000010
     0.6155      0.000000
     0.6160      0.000000
     0.6165      0.000000
     0.6170      0.000000
     0.6175      0.000000
     0.6180      0.000000
     0.6185      0.000000
     0.6190      0.000000
     0.6195      0.000000
     0.6200      0.000000
     0.6205      0.000000
     0.6210      0.000000
     0.6215      0.000000
     0.6220      0.000000
     0.6225      0.000000
     0.6230      0.000000
     0.6235      0.000000
     0.6240      0.000000
     0.6245      0.000000
     0.6250      0.000000
     0.6255      0.000000
     0.6260      0.000000
     0.6265      0.000000
     0.6270      0.000000
     0.6275      0.000000
     0.6280      0.000000
     0.6285      0.000000
     0.6290      0.000000
     0.6295      0.002260
     0.6300      0.002680
     0.6305      0.001260
     0.6310      0.001280
     0.6315      0.001510
     0.6320      0.001900
     0.6325      0.004960
     0.6330      0.018310
     0.6335      0.003070
     0.6340      0.002840
     0.6345      0.001010
     0.6350      0.001090
     0.6355      0.001240
     0.6360      0.001840
     0.6365      0.000260
     0.6370      0.000000
     0.6375      0.000000
     0.6380      0.000000
     0.6385      0.000000
     0.6390      0.000000
     0.6395      0.000000
     0.6400      0.000000
     0.6405      0.000000
     0.6410      0.000000
     0.6415      0.000000
     0.6420      0.000000
     0.6425      0.000000
     0.6430      0.000000
     0.6435      0.000000
     0.6440      0.000000
     0.6445      0.000000
     0.6450      0.000000
     0.6455      0.000200
     0.6460      0.000780
     0.6465      0.001260
     0.6470      0.000870
     0.6475      0.000610
     0.6480      0.000100
     0.6485      0.000100
     0.6490      0.000240
     0.6495      0.000140
     0.6500      0.000000
     0.6505      0.000000
     0.6510      0.000910
     0.6515      0.002970
     0.6520      0.009170
     0.6525      0.013600
     0.6530      0.006290
     0.6535      0.004000
     0.6540      0.003800
     0.6545      0.004060
     0.6550      0.005180
     0.6555      0.006740
     0.6560      0.008640
     0.6565      0.012350
     0.6570      0.017860
     0.6575      0.020410
     0.6580      0.020150
     0.6585      0.020010
     0.6590      0.021640
     0.6595      0.026730
     0.6600      0.037170
     0.6605      0.056920
     0.6610      0.090300
     0.6615      0.130580
     0.6620      0.158060
     0.6625      0.173800
     0.6630      0.194740
     0.6635      0.237070
     0.6640      0.310410
     0.6645      0.397620
     0.6650      0.444080
     0.6655      0.428130
     0.6660      0.396730
     0.6665      0.389130
     0.6670      0.416210
     0.6675      0.469950
     0.6680      0.514590
     0.6685      0.498990
     0.6690      0.433290
     0.6695      0.374080
     0.6700      0.351550
     0.6705      0.378040
     0.6710      0.466770
     0.6715      0.608600
     0.6720      0.636930
     0.6725      0.433070
     0.6730      0.250210
     0.6735      0.156430
     0.6740      0.112410
     0.6745      0.093650
     0.6750      0.088500
     0.6755      0.092160
     0.6760      0.105520
     0.6765      0.133730
     0.6770      0.188830
     0.6775      0.287810
     0.6780      0.431960
     0.6785      0.549920
     0.6790      0.542730
     0.6795      0.451460
     0.6800      0.355470
     0.6805      0.281520
     0.6810      0.228600
     0.6815      0.193000
     0.6820      0.170230
     0.6825      0.158100
     0.6830      0.155890
     0.6835      0.164430
     0.6840      0.186430
     0.6845      0.225120
     0.6850      0.282450
     0.6855      0.347280
     0.6860      0.375940
     0.6865      0.323400
     0.6870      0.227450
     0.6875      0.148000
     0.6880      0.098210
     0.6885      0.069590
     0.6890      0.053870
     0.6895      0.045480
     0.6900      0.041260
     0.6905      0.040260
     0.6910      0.042700
     0.6915      0.050740
     0.6920      0.069160
     0.6925      0.107970
     0.6930      0.188040
     0.6935      0.317230
     0.6940      0.397820
     0.6945      0.376480
     0.6950      0.351450
     0.6955      0.341650
     0.6960      0.285760
     0.6965      0.174220
     0.6970      0.092980
     0.6975      0.053160
     0.6980      0.034630
     0.6985      0.025850
     0.6990      0.021500
     0.6995      0.019390
     0.7000      0.018610
     0.7005      0.020820
     0.7010      0.027100
     0.7015      0.042620
     0.7020      0.080280
     0.7025      0.167050
     0.7030      0.264630
     0.7035      0.225910
     0.7040      0.151980
     0.7045      0.088350
     0.7050      0.039020
     0.7055      0.015560
     0.7060      0.007070
     0.7065      0.004380
     0.7070      0.003400
     0.7075      0.002740
     0.7080      0.001970
     0.7085      0.001020
     0.7090      0.000360
     0.7095      0.000000
     0.7100      0.000000
     0.7105      0.000000
     0.7110      0.000000
     0.7115      0.000000
     0.7120      0.000000
     0.7125      0.000000
     0.7130      0.000000
     0.7135      0.000210
     0.7140      0.000550
     0.7145      0.000550
     0.7150      0.000500
     0.7155      0.000590
     0.7160      0.000400
     0.7165      0.000500
     0.7170      0.000690
     0.7175      0.001060
     0.7180      0.003150
     0.7185      0.002090
     0.7190      0.000850
     0.7195      0.001150
     0.7200      0.003320
     0.7205      0.011020
     0.7210      0.003700
     0.7215      0.001180
     0.7220      0.000610
     0.7225      0.000580
     0.7230      0.000930
     0.7235      0.000700
     0.7240      0.000470
     0.7245      0.000600
     0.7250      0.000320
     0.7255      0.000000
     0.7260      0.000000
     0.7265      0.000000
     0.7270      0.000000
     0.7275      0.000000
     0.7280      0.000000
     0.7285      0.000000
     0.7290      0.000000
     0.7295      0.000000
     0.7300      0.000000
     0.7305      0.000000
     0.7310      0.000000
     0.7315      0.000000
     0.7320      0.000000
     0.7325      0.000000
     0.7330      0.000000
     0.7335      0.000000
     0.7340      0.000000
     0.7345      0.000000
     0.7350      0.000000
     0.7355      0.000000
     0.7360      0.000000
     0.7365      0.000000
     0.7370      0.000000
     0.7375      0.000000
     0.7380      0.000000
     0.7385      0.000000
     0.7390      0.000000
     0.7395      0.000000
     0.7400      0.000000
     0.7405      0.000000
     0.7410      0.000000
     0.7415      0.000000
     0.7420      0.000000
     0.7425      0.000000
     0.7430      0.000000
     0.7435      0.000000
     0.7440      0.000000
     0.7445      0.000000
     0.7450      0.000000
     0.7455      0.000000
     0.7460      0.000000
     0.7465      0.000000
     0.7470      0.000000
     0.7475      0.000020
     0.7480      0.000000
     0.7485      0.000000
     0.7490      0.000000
     0.7495      0.000000
     0.7500      0.000000
     0.7505      0.000000
     0.7510      0.000000
     0.7515      0.000000
     0.7520      0.000000
     0.7525      0.000000
     0.7530      0.000000
     0.7535      0.000030
     0.7540      0.000000
     0.7545      0.000000
     0.7550      0.000000
     0.7555      0.000090
     0.7560      0.000000
     0.7565      0.000080
     0.7570      0.000100
     0.7575      0.000000
     0.7580      0.000020
     0.7585      0.000030
     0.7590      0.000010
     0.7595      0.000140
     0.7600      0.000090
     0.7605      0.000170
     0.7610      0.000170
     0.7615      0.000090
     0.7620      0.000180
     0.7625      0.000210
     0.7630      0.000100
     0.7635      0.000250
     0.7640      0.000200
     0.7645      0.000240
     0.7650      0.000280
     0.7655      0.000260
     0.7660      0.000190
     0.7665      0.000130
     0.7670      0.000060
     0.7675      0.000120
     0.7680      0.000090
     0.7685      0.000090
     0.7690      0.000180
     0.7695      0.000160
     0.7700      0.000140
     0.7705      0.000170
     0.7710      0.000100
     0.7715      0.000140
     0.7720      0.000190
     0.7725      0.000190
     0.7730      0.000310
     0.7735      0.000350
     0.7740      0.000360
     0.7745      0.000400
     0.7750      0.000340
     0.7755      0.000210
     0.7760      0.000150
     0.7765      0.000190
     0.7770      0.000130
     0.7775      0.000030
     0.7780      0.000080
     0.7785      0.000170
     0.7790      0.000080
     0.7795      0.000030
     0.7800      0.000110
     0.7805      0.000020
     0.7810      0.000100
     0.7815      0.000050
     0.7820      0.000070
     0.7825      0.000110
     0.7830      0.000110
     0.7835      0.000140
     0.7840      0.000140
     0.7845      0.000120
     0.7850      0.000150
     0.7855      0.000100
     0.7860      0.000110
     0.7865      0.000030
     0.7870      0.000030
     0.7875      0.000030
     0.7880      0.000090
     0.7885      0.000080
     0.7890      0.000050
     0.7895      0.000150
     0.7900      0.000040
     0.7905      0.000120
     0.7910      0.000090
     0.7915      0.000130
     0.7920      0.000150
     0.7925      0.000130
     0.7930      0.000120
     0.7935      0.000080
     0.7940      0.000090
     0.7945      0.000020
     0.7950      0.000110
     0.7955      0.000140
     0.7960      0.000100
     0.7965      0.000050
     0.7970      0.000100
     0.7975      0.000050
     0.7980      0.000060
     0.7985      0.000000
     0.7990      0.000060
     0.7995      0.000020
     0.8000      0.000010
     0.8005      0.000000
     0.8010      0.000110
     0.8015      0.000010
     0.8020      0.000100
     0.8025      0.000080
     0.8030      0.000180
     0.8035      0.000220
     0.8040      0.000240
     0.8045      0.000290
     0.8050      0.000310
     0.8055      0.000300
     0.8060      0.000250
     0.8065      0.000340
     0.8070      0.000400
     0.8075      0.000220
     0.8080      0.000270
     0.8085      0.000190
     0.8090      0.000200
     0.8095      0.000180
     0.8100      0.000180
     0.8105      0.000200
     0.8110      0.000210
     0.8115      0.000210
     0.8120      0.000200
     0.8125      0.000170
     0.8130      0.000180
     0.8135      0.000170
     0.8140      0.000170
     0.8145      0.000150
     0.8150      0.000090
     0.8155      0.000160
     0.8160      0.000230
     0.8165      0.000160
     0.8170      0.000150
     0.8175      0.000130
     0.8180      0.000190
     0.8185      0.000190
     0.8190      0.000170
     0.8195      0.000100
     0.8200      0.000130
     0.8205      0.000160
     0.8210      0.000190
     0.8215      0.000210
     0.8220      0.000280
     0.8225      0.000270
     0.8230      0.000270
     0.8235      0.000260
     0.8240      0.000380
     0.8245      0.000270
     0.8250      0.000320
     0.8255      0.000350
     0.8260      0.000310
     0.8265      0.000250
     0.8270      0.000220
     0.8275      0.000290
     0.8280      0.000210
     0.8285      0.000230
     0.8290      0.000210
     0.8295      0.000240
     0.8300      0.000180
     0.8305      0.000220
     0.8310      0.000260
     0.8315      0.000250
     0.8320      0.000240
     0.8325      0.000210
     0.8330      0.000200
     0.8335      0.000260
     0.8340      0.000230
     0.8345      0.000130
     0.8350      0.000100
     0.8355      0.000110
     0.8360      0.000120
     0.8365      0.000120
     0.8370      0.000120
     0.8375      0.000130
     0.8380      0.000160
     0.8385      0.000190
     0.8390      0.000160
     0.8395      0.000170
     0.8400      0.000160
     0.8405      0.000230
     0.8410      0.000200
     0.8415      0.000170
     0.8420      0.000190
     0.8425      0.000210
     0.8430      0.000190
     0.8435      0.000100
     0.8440      0.000100
     0.8445      0.000150
     0.8450      0.000100
     0.8455      0.000120
     0.8460      0.000130
     0.8465      0.000190
     0.8470      0.000090
     0.8475      0.000100
     0.8480      0.000080
     0.8485      0.000090
     0.8490      0.000100
     0.8495      0.000100
     0.8500      0.000130
     0.8505      0.000110
     0.8510      0.000070
     0.8515      0.000070
     0.8520      0.000020
     0.8525      0.000050
     0.8530      0.000090
     0.8535      0.000050
     0.8540      0.000060
     0.8545      0.000020
     0.8550      0.000020
     0.8555      0.000050
     0.8560      0.000060
     0.8565      0.000070
     0.8570      0.000070
     0.8575      0.000020
     0.8580      0.000060
     0.8585      0.000040
     0.8590      0.000040
     0.8595      0.000020
     0.8600      0.000050
     0.8605      0.000050
     0.8610      0.000020
     0.8615      0.000000
     0.8620      0.000000
     0.8625      0.000020
     0.8630      0.000040
     0.8635      0.000010
     0.8640      0.000000
     0.8645      0.000010
     0.8650      0.000010
     0.8655      0.000040
     0.8660      0.000120
     0.8665      0.000100
     0.8670      0.000160
     0.8675      0.000180
     0.8680      0.000110
     0.8685      0.000090
     0.8690      0.000020
     0.8695      0.000060
     0.8700      0.000040
     0.8705      0.000060
     0.8710      0.000090
     0.8715      0.000160
     0.8720      0.000200
     0.8725      0.000240
     0.8730      0.000270
     0.8735      0.000240
     0.8740      0.000170
     0.8745      0.000170
     0.8750      0.000170
     0.8755      0.000130
     0.8760      0.000140
     0.8765      0.000120
     0.8770      0.000180
     0.8775      0.000160
     0.8780      0.000130
     0.8785      0.000130
     0.8790      0.000110
     0.8795      0.000060
     0.8800      0.000070
     0.8805      0.000050
     0.8810      0.000050
     0.8815      0.000000
     0.8820      0.000000
     0.8825      0.000040
     0.8830      0.000050
     0.8835      0.000050
     0.8840      0.000050
     0.8845      0.000060
     0.8850      0.000040
     0.8855      0.000100
     0.8860      0.000110
     0.8865      0.000130
     0.8870      0.000170
     0.8875      0.000190
     0.8880      0.000170
     0.8885      0.000120
     0.8890      0.000070
     0.8895      0.000070
     0.8900      0.000080
     0.8905      0.000060
     0.8910      0.000050
     0.8915      0.000060
     0.8920      0.000060
     0.8925      0.000040
     0.8930      0.000040
     0.8935      0.000020
     0.8940      0.000010
     0.8945      0.000060
     0.8950      0.000020
     0.8955      0.000040
     0.8960      0.000020
     0.8965      0.000060
     0.8970      0.000050
     0.8975      0.000030
     0.8980      0.000090
     0.8985      0.000050
     0.8990      0.000060
     0.8995      0.000080
     0.9000      0.000070
     0.9005      0.000120
     0.9010      0.000100
     0.9015      0.000060
     0.9020      0.000100
     0.9025      0.000090
     0.9030      0.000050
     0.9035      0.000090
     0.9040      0.000160
     0.9045      0.000200
     0.9050      0.000310
     0.9055      0.000500
     0.9060      0.000840
     0.9065      0.001510
     0.9070      0.003070
     0.9075      0.006170
     0.9080      0.008280
     0.9085      0.006110
     0.9090      0.003250
     0.9095      0.001590
     0.9100      0.000810
     0.9105      0.000410
     0.9110      0.000240
     0.9115      0.000160
     0.9120      0.000060
     0.9125      0.000070
     0.9130      0.000080
     0.9135      0.000080
     0.9140      0.000080
     0.9145      0.000090
     0.9150      0.000080
     0.9155      0.000060
     0.9160      0.000060
     0.9165      0.000050
     0.9170      0.000030
     0.9175      0.000050
     0.9180      0.000030
     0.9185      0.000020
     0.9190      0.000020
     0.9195      0.000030
     0.9200      0.000030
     0.9205      0.000070
     0.9210      0.000100
     0.9215      0.000090
     0.9220      0.000110
     0.9225      0.000110
     0.9230      0.000160
     0.9235      0.000130
     0.9240      0.000100
     0.9245      0.000090
     0.9250      0.000060
     0.9255      0.000030
     0.9260      0.000050
     0.9265      0.000040
     0.9270      0.000000
     0.9275      0.000010
     0.9280      0.000010
     0.9285      0.000050
     0.9290      0.000010
     0.9295      0.000050
     0.9300      0.000050
     0.9305      0.000060
     0.9310      0.000060
     0.9315      0.000060
     0.9320      0.000050
     0.9325      0.000040
     0.9330      0.000030
     0.9335      0.000020
     0.9340      0.000000
     0.9345      0.000040
     0.9350      0.000050
     0.9355      0.000040
     0.9360      0.000020
     0.9365      0.000030
     0.9370      0.000040
     0.9375      0.000020
     0.9380      0.000050
     0.9385      0.000050
     0.9390      0.000070
     0.9395      0.000060
     0.9400      0.000030
     0.9405      0.000050
     0.9410      0.000070
     0.9415      0.000070
     0.9420      0.000080
     0.9425      0.000100
     0.9430      0.000100
     0.9435      0.000130
     0.9440      0.000160
     0.9445      0.000230
     0.9450      0.000310
     0.9455      0.000390
     0.9460      0.000350
     0.9465      0.000250
     0.9470      0.000130
     0.9475      0.000070
     0.9480      0.000050
     0.9485      0.000040
     0.9490      0.000020
     0.9495      0.000030
     0.9500      0.000010
     0.9505      0.000020
     0.9510      0.000000
     0.9515      0.000010
     0.9520      0.000000
     0.9525      0.000000
     0.9530      0.000010
     0.9535      0.000020
     0.9540      0.000000
     0.9545      0.000010
     0.9550      0.000010
     0.9555      0.000020
     0.9560      0.000010
     0.9565      0.000000
     0.9570      0.000010
     0.9575      0.000030
     0.9580      0.000040
     0.9585      0.000030
     0.9590      0.000020
     0.9595      0.000040
     0.9600      0.000040
     0.9605      0.000050
     0.9610      0.000040
     0.9615      0.000030
     0.9620      0.000030
     0.9625      0.000050
     0.9630      0.000030
     0.9635      0.000020
     0.9640      0.000010
     0.9645      0.000000
     0.9650      0.000020
     0.9655      0.000020
     0.9660      0.000020
     0.9665      0.000010
     0.9670      0.000020
     0.9675      0.000030
     0.9680      0.000040
     0.9685      0.000060
     0.9690      0.000060
     0.9695      0.000060
     0.9700      0.000050
     0.9705      0.000060
     0.9710      0.000030
     0.9715      0.000020
     0.9720      0.000040
     0.9725      0.000030
     0.9730      0.000030
     0.9735      0.000010
     0.9740      0.000000
     0.9745      0.000000
     0.9750      0.000000
     0.9755      0.000000
     0.9760      0.000020
     0.9765      0.000000
     0.9770      0.000010
     0.9775      0.000020
     0.9780      0.000050
     0.9785      0.000010
     0.9790      0.000020
     0.9795      0.000040
     0.9800      0.000020
     0.9805      0.000020
     0.9810      0.000010
     0.9815      0.000020
     0.9820      0.000020
     0.9825      0.000010
     0.9830      0.000040
     0.9835      0.000030
     0.9840      0.000070
     0.9845      0.000090
     0.9850      0.000110
     0.9855      0.000130
     0.9860      0.000150
     0.9865      0.000150
     0.9870      0.000140
     0.9875      0.000120
     0.9880      0.000110
     0.9885      0.000080
     0.9890      0.000060
     0.9895      0.000070
     0.9900      0.000020
     0.9905      0.000040
     0.9910      0.000040
     0.9915      0.000040
     0.9920      0.000040
     0.9925      0.000040
     0.9930      0.000040
     0.9935      0.000040
     0.9940      0.000040
     0.9945      0.000040
     0.9950      0.000050
     0.9955      0.000040
     0.9960      0.000050
     0.9965      0.000050
     0.9970      0.000050
     0.9975      0.000040
     0.9980      0.000050
     0.9985      0.000030
     0.9990      0.000050
     0.9995      0.000030
     1.0000      0.000020
     1.0005      0.000030
     1.0010      0.000030
     1.0015      0.000040
     1.0020      0.000020
     1.0025      0.000020
     1.0030      0.000020
     1.0035      0.000020
     1.0040      0.000030
     1.0045      0.000040
     1.0050      0.000020
     1.0055      0.000050
     1.0060      0.000040
     1.0065      0.000040
     1.0070      0.000060
     1.0075      0.000040
     1.0080      0.000050
     1.0085      0.000050
     1.0090      0.000050
     1.0095      0.000050
     1.0100      0.000070
     1.0105      0.000050
     1.0110      0.000040
     1.0115      0.000020
     1.0120      0.000040
     1.0125      0.000030
     1.0130      0.000030
     1.0135      0.000040
     1.0140      0.000020
     1.0145      0.000030
     1.0150      0.000020
     1.0155      0.000040
     1.0160      0.000010
     1.0165      0.000020
     1.0170      0.000020
     1.0175      0.000020
     1.0180      0.000010
     1.0185      0.000010
     1.0190      0.000020
     1.0195      0.000040
     1.0200      0.000020
     1.0205      0.000040
     1.0210      0.000030
     1.0215      0.000020
     1.0220      0.000030
     1.0225      0.000020
     1.0230      0.000050
     1.0235      0.000060
     1.0240      0.000040
     1.0245      0.000040
     1.0250      0.000050
     1.0255      0.000040
     1.0260      0.000030
     1.0265      0.000040
     1.0270      0.000050
     1.0275      0.000040
     1.0280      0.000050
     1.0285      0.000040
     1.0290      0.000010
     1.0295      0.000040
     1.0300      0.000030
     1.0305      0.000040
     1.0310      0.000050
     1.0315      0.000040
     1.0320      0.000060
     1.0325      0.000040
     1.0330      0.000070
     1.0335      0.000050
     1.0340      0.000080
     1.0345      0.000110
     1.0350      0.000120
     1.0355      0.000160
     1.0360      0.000170
     1.0365      0.000230
     1.0370      0.000280
     1.0375      0.000320
     1.0380      0.000360
     1.0385      0.000380
     1.0390      0.000370
     1.0395      0.000340
     1.0400      0.000270
     1.0405      0.000200
     1.0410      0.000170
     1.0415      0.000170
     1.0420      0.000110
     1.0425      0.000120
     1.0430      0.000100
     1.0435      0.000090
     1.0440      0.000080
     1.0445      0.000090
     1.0450      0.000080
     1.0455      0.000060
     1.0460      0.000070
     1.0465      0.000060
     1.0470      0.000070
     1.0475      0.000050
     1.0480      0.000060
     1.0485      0.000050
     1.0490      0.000090
     1.0495      0.000090
     1.0500      0.000090
     1.0505      0.000090
     1.0510      0.000140
     1.0515      0.000120
     1.0520      0.000140
     1.0525      0.000140
     1.0530      0.000150
     1.0535      0.000120
     1.0540      0.000130
     1.0545      0.000090
     1.0550      0.000100
     1.0555      0.000090
     1.0560      0.000050
     1.0565      0.000060
     1.0570      0.000050
     1.0575      0.000060
     1.0580      0.000080
     1.0585      0.000050
     1.0590      0.000010
     1.0595      0.000050
     1.0600      0.000060
     1.0605      0.000070
     1.0610      0.000050
     1.0615      0.000030
     1.0620      0.000030
     1.0625      0.000060
     1.0630      0.000030
     1.0635      0.000070
     1.0640      0.000070
     1.0645      0.000050
     1.0650      0.000040
     1.0655      0.000040
     1.0660      0.000060
     1.0665      0.000050
     1.0670      0.000010
     1.0675      0.000020
     1.0680      0.000050
     1.0685      0.000020
     1.0690      0.000000
     1.0695      0.000000
     1.0700      0.000020
     1.0705      0.000010
     1.0710      0.000020
     1.0715      0.000040
     1.0720      0.000020
     1.0725      0.000000
     1.0730      0.000030
     1.0735      0.000020
     1.0740      0.000000
     1.0745      0.000050
     1.0750      0.000040
     1.0755      0.000050
     1.0760      0.000050
     1.0765      0.000050
     1.0770      0.000050
     1.0775      0.000090
     1.0780      0.000130
     1.0785      0.000160
     1.0790      0.000160
     1.0795      0.000210
     1.0800      0.000250
     1.0805      0.000310
     1.0810      0.000410
     1.0815      0.000490
     1.0820      0.000530
     1.0825      0.000550
     1.0830      0.000560
     1.0835      0.000580
     1.0840      0.000560
     1.0845      0.000520
     1.0850      0.000520
     1.0855      0.000590
     1.0860      0.000540
     1.0865      0.000590
     1.0870      0.000650
     1.0875      0.000740
     1.0880      0.000820
     1.0885      0.001060
     1.0890      0.001280
     1.0895      0.001710
     1.0900      0.002220
     1.0905      0.002950
     1.0910      0.003940
     1.0915      0.005270
     1.0920      0.006600
     1.0925      0.007560
     1.0930      0.007660
     1.0935      0.007050
     1.0940      0.006080
     1.0945      0.005040
     1.0950      0.004290
     1.0955      0.003700
     1.0960      0.003260
     1.0965      0.002760
     1.0970      0.002480
     1.0975      0.002330
     1.0980      0.002140
     1.0985      0.002040
     1.0990      0.001960
     1.0995      0.001910
     1.1000      0.001910
     1.1005      0.001980
     1.1010      0.002000
     1.1015      0.002060
     1.1020      0.002210
     1.1025      0.002390
     1.1030      0.002560
     1.1035      0.002620
     1.1040      0.002770
     1.1045      0.002650
     1.1050      0.002390
     1.1055      0.001990
     1.1060      0.001640
     1.1065      0.001330
     1.1070      0.001030
     1.1075      0.000870
     1.1080      0.000690
     1.1085      0.000520
     1.1090      0.000440
     1.1095      0.000320
     1.1100      0.000340
     1.1105      0.000300
     1.1110      0.000150
     1.1115      0.000780
     1.1120      0.000830
     1.1125      0.001910
     1.1130      0.002270
     1.1135      0.000000
     1.1140      0.000000
     1.1145      0.000000
     1.1150      0.000000
     1.1155      0.000000
     1.1160      0.000000
     1.1165      0.001350
     1.1170      0.001680
     1.1175      0.001350
     1.1180      0.000000
     1.1185      0.000700
     1.1190      0.000000
     1.1195      0.000000
     1.1200      0.000300
     1.1205      0.004070
     1.1210      0.000050
     1.1215      0.001300
     1.1220      0.000000
     1.1225      0.001470
     1.1230      0.000760
     1.1235      0.002570
     1.1240      0.003530
     1.1245      0.006880
     1.1250      0.006590
     1.1255      0.008720
     1.1260      0.010950
     1.1265      0.009350
     1.1270      0.012340
     1.1275      0.018250
     1.1280      0.023630
     1.1285      0.022700
     1.1290      0.017710
     1.1295      0.012370
     1.1300      0.006930
     1.1305      0.001070
     1.1310      0.003370
     1.1315      0.002220
     1.1320      0.000500
     1.1325      0.004250
     1.1330      0.002750
     1.1335      0.001080
     1.1340      0.000230
     1.1345      0.000020
     1.1350      0.000000
     1.1355      0.000000
     1.1360      0.000270
     1.1365      0.000920
     1.1370      0.000000
     1.1375      0.000000
     1.1380      0.000000
     1.1385      0.000000
     1.1390      0.000000
     1.1395      0.000000
     1.1400      0.000390
     1.1405      0.000000
     1.1410      0.000000
     1.1415      0.000980
     1.1420      0.000210
     1.1425      0.000670
     1.1430      0.000320
     1.1435      0.002450
     1.1440      0.001870
     1.1445      0.001280
     1.1450      0.001470
     1.1455      0.000350
     1.1460      0.002860
     1.1465      0.000930
     1.1470      0.002220
     1.1475      0.001310
     1.1480      0.000230
     1.1485      0.000150
     1.1490      0.000910
     1.1495      0.001240
     1.1500      0.000000
     1.1505      0.001650
     1.1510      0.000130
     1.1515      0.000040
     1.1520      0.000020
     1.1525      0.000000
     1.1530      0.000000
     1.1535      0.001940
     1.1540      0.000130
     1.1545      0.000000
     1.1550      0.001280
     1.1555      0.000160
     1.1560      0.000010
     1.1565      0.000000
     1.1570      0.001330
     1.1575      0.000540
     1.1580      0.000000
     1.1585      0.000500
     1.1590      0.000000
     1.1595      0.000000
     1.1600      0.001150
     1.1605      0.000110
     1.1610      0.001100
     1.1615      0.000820
     1.1620      0.000280
     1.1625      0.000140
     1.1630      0.000290
     1.1635      0.001100
     1.1640      0.000180
     1.1645      0.001550
     1.1650      0.000170
     1.1655      0.000050
     1.1660      0.001810
     1.1665      0.003430
     1.1670      0.001410
     1.1675      0.000000
     1.1680      0.001630
     1.1685      0.001430
     1.1690      0.002290
     1.1695      0.001490
     1.1700      0.000250
     1.1705      0.000280
     1.1710      0.001700
     1.1715      0.000390
     1.1720      0.000140
     1.1725      0.000370
     1.1730      0.000170
     1.1735      0.000660
     1.1740      0.000340
     1.1745      0.000090
     1.1750      0.000000
     1.1755      0.000920
     1.1760      0.000000
     1.1765      0.000290
     1.1770      0.000730
     1.1775      0.001420
     1.1780      0.001000
     1.1785      0.000000
     1.1790      0.000270
     1.1795      0.000000
     1.1800      0.001980
     1.1805      0.000100
     1.1810      0.001020
     1.1815      0.000000
     1.1820      0.000070
     1.1825      0.001080
     1.1830      0.001570
     1.1835      0.000000
     1.1840      0.001880
     1.1845      0.000410
     1.1850      0.001060
     1.1855      0.000460
     1.1860      0.000670
     1.1865      0.001550
     1.1870      0.002580
     1.1875      0.002320
     1.1880      0.001640
     1.1885      0.000000
     1.1890      0.001710
     1.1895      0.000530
     1.1900      0.000520
     1.1905      0.002440
     1.1910      0.002120
     1.1915      0.001540
     1.1920      0.001230
     1.1925      0.001380
     1.1930      0.000000
     1.1935      0.001180
     1.1940      0.001420
     1.1945      0.001000
     1.1950      0.001690
     1.1955      0.000150
     1.1960      0.000350
     1.1965      0.000270
     1.1970      0.000000
     1.1975      0.000690
     1.1980      0.000000
     1.1985      0.000150
     1.1990      0.000650
     1.1995      0.000040
     1.2000      0.000970
     1.2005      0.003570
     1.2010      0.000000
     1.2015      0.000120
     1.2020      0.001730
     1.2025      0.000000
     1.2030      0.000000
     1.2035      0.002020
     1.2040      0.001260
     1.2045      0.000000
     1.2050      0.001700
     1.2055      0.001320
     1.2060      0.000000
     1.2065      0.000080
     1.2070      0.001910
     1.2075      0.000190
     1.2080      0.000570
     1.2085      0.000190
     1.2090      0.000100
     1.2095      0.001010
     1.2100      0.000000
     1.2105      0.000570
     1.2110      0.000380
     1.2115      0.000000
     1.2120      0.000220
     1.2125      0.000000
     1.2130      0.000270
     1.2135      0.001830
     1.2140      0.000040
     1.2145      0.000290
     1.2150      0.000060
     1.2155      0.001220
     1.2160      0.000770
     1.2165      0.000000
     1.2170      0.000480
     1.2175      0.001420
     1.2180      0.001660
     1.2185      0.001660
     1.2190      0.001530
     1.2195      0.000730
     1.2200      0.001550
     1.2205      0.000000
     1.2210      0.000000
     1.2215      0.001210
     1.2220      0.001530
     1.2225      0.000020
     1.2230      0.000000
     1.2235      0.000000
     1.2240      0.000590
     1.2245      0.002620
     1.2250      0.000060
     1.2255      0.000550
     1.2260      0.000000
     1.2265      0.001090
     1.2270      0.000000
     1.2275      0.001460
     1.2280      0.000270
     1.2285      0.001000
     1.2290      0.000400
     1.2295      0.000030
     1.2300      0.002520
     1.2305      0.000730
     1.2310      0.000070
     1.2315      0.000000
     1.2320      0.000160
     1.2325      0.000400
     1.2330      0.000000
     1.2335      0.000000
     1.2340      0.000050
     1.2345      0.000000
     1.2350      0.000000
     1.2355      0.000600
     1.2360      0.000730
     1.2365      0.002170
     1.2370      0.000550
     1.2375      0.001100
     1.2380      0.000810
     1.2385      0.000970
     1.2390      0.000040
     1.2395      0.000730
     1.2400      0.000380
     1.2405      0.000550
     1.2410      0.001490
     1.2415      0.000400
     1.2420      0.001440
     1.2425      0.000000
     1.2430      0.000730
     1.2435      0.001510
     1.2440      0.001800
     1.2445      0.000480
     1.2450      0.000690
     1.2455      0.000000
     1.2460      0.000760
     1.2465      0.001620
     1.2470      0.000060
     1.2475      0.000790
     1.2480      0.000220
     1.2485      0.001380
     1.2490      0.000000
     1.2495      0.000130
     1.2500      0.000180
     1.2505      0.000040
     1.2510      0.000280
     1.2515      0.000090
     1.2520      0.000290
     1.2525      0.001810
     1.2530      0.001010
     1.2535      0.000110
     1.2540      0.000020
     1.2545      0.000000
     1.2550      0.000960
     1.2555      0.001550
     1.2560      0.000150
     1.2565      0.000320
     1.2570      0.000290
     1.2575      0.000030
     1.2580      0.000000
     1.2585      0.000160
     1.2590      0.000100
     1.2595      0.000000
     1.2600      0.000050
     1.2605      0.000000
     1.2610      0.000350
     1.2615      0.000320
     1.2620      0.000000
     1.2625      0.000070
     1.2630      0.001460
     1.2635      0.000460
     1.2640      0.000890
     1.2645      0.001180
     1.2650      0.001730
     1.2655      0.002630
     1.2660      0.004400
     1.2665      0.007380
     1.2670      0.008790
     1.2675      0.005670
     1.2680      0.004350
     1.2685      0.003410
     1.2690      0.001640
     1.2695      0.000540
     1.2700      0.000980
     1.2705      0.001590
     1.2710      0.000210
     1.2715      0.000110
     1.2720      0.000000
     1.2725      0.001070
     1.2730      0.000720
     1.2735      0.000000
     1.2740      0.000290
     1.2745      0.000000
     1.2750      0.000230
     1.2755      0.000150
     1.2760      0.000210
     1.2765      0.000480
     1.2770      0.000000
     1.2775      0.000170
     1.2780      0.000180
     1.2785      0.000770
     1.2790      0.000080
     1.2795      0.000240
     1.2800      0.000150
     1.2805      0.000650
     1.2810      0.000020
     1.2815      0.002240
     1.2820      0.000000
     1.2825      0.000020
     1.2830      0.000020
     1.2835      0.001230
     1.2840      0.000000
     1.2845      0.000200
     1.2850      0.000100
     1.2855      0.000000
     1.2860      0.000940
     1.2865      0.001300
     1.2870      0.000000
     1.2875      0.000000
     1.2880      0.000460
     1.2885      0.000450
     1.2890      0.000000
     1.2895      0.000450
     1.2900      0.001870
     1.2905      0.001370
     1.2910      0.001890
     1.2915      0.000900
     1.2920      0.001980
     1.2925      0.000000
     1.2930      0.001640
     1.2935      0.001160
     1.2940      0.001460
     1.2945      0.000000
     1.2950      0.000730
     1.2955      0.000000
     1.2960      0.000000
     1.2965      0.001280
     1.2970      0.000510
     1.2975      0.000010
     1.2980      0.000000
     1.2985      0.000540
     1.2990      0.000000
     1.2995      0.000330
     1.3000      0.000600
     1.3005      0.000080
     1.3010      0.000710
     1.3015      0.000000
     1.3020      0.000000
     1.3025      0.000400
     1.3030      0.000110
     1.3035      0.000000
     1.3040      0.000650
     1.3045      0.000830
     1.3050      0.000390
     1.3055      0.000020
     1.3060      0.000070
     1.3065      0.000410
     1.3070      0.000750
     1.3075      0.001160
     1.3080      0.000160
     1.3085      0.000360
     1.3090      0.001100
     1.3095      0.002650
     1.3100      0.003300
     1.3105      0.003310
     1.3110      0.006780
     1.3115      0.013850
     1.3120      0.021910
     1.3125      0.020290
     1.3130      0.012040
     1.3135      0.006950
     1.3140      0.003850
     1.3145      0.001750
     1.3150      0.001460
     1.3155      0.000110
     1.3160      0.001930
     1.3165      0.002150
     1.3170      0.000920
     1.3175      0.001630
     1.3180      0.000650
     1.3185      0.002170
     1.3190      0.001360
     1.3195      0.000860
     1.3200      0.000000
     1.3205      0.000330
     1.3210      0.000000
     1.3215      0.000000
     1.3220      0.000000
     1.3225      0.000000
     1.3230      0.001260
     1.3235      0.000000
     1.3240      0.000220
     1.3245      0.000510
     1.3250      0.001250
     1.3255      0.002100
     1.3260      0.000510
     1.3265      0.000420
     1.3270      0.000000
     1.3275      0.000000
     1.3280      0.000680
     1.3285      0.000000
     1.3290      0.000760
     1.3295      0.000680
     1.3300      0.001580
     1.3305      0.000850
     1.3310      0.000460
     1.3315      0.000120
     1.3320      0.000260
     1.3325      0.000200
     1.3330      0.000000
     1.3335      0.000000
     1.3340      0.000530
     1.3345      0.000000
     1.3350      0.000480
     1.3355      0.000010
     1.3360      0.000740
     1.3365      0.000000
     1.3370      0.000180
     1.3375      0.001310
     1.3380      0.001010
     1.3385      0.000230
     1.3390      0.000000
     1.3395      0.000000
     1.3400      0.000140
     1.3405      0.000180
     1.3410      0.000000
     1.3415      0.000290
     1.3420      0.000350
     1.3425      0.000860
     1.3430      0.000710
     1.3435      0.000770
     1.3440      0.000620
     1.3445      0.000000
     1.3450      0.000000
     1.3455      0.000190
     1.3460      0.000220
     1.3465      0.000100
     1.3470      0.000390
     1.3475      0.000000
     1.3480      0.000000
     1.3485      0.000000
     1.3490      0.000000
     1.3495      0.001640
     1.3500      0.000140
     1.3505      0.000280
     1.3510      0.000000
     1.3515      0.000370
     1.3520      0.000000
     1.3525      0.000000
     1.3530      0.000490
     1.3535      0.000000
     1.3540      0.000500
     1.3545      0.000020
     1.3550      0.000030
     1.3555      0.000190
     1.3560      0.000650
     1.3565      0.000200
     1.3570      0.000000
     1.3575      0.000420
     1.3580      0.000700
     1.3585      0.000770
     1.3590      0.000000
     1.3595      0.000740
     1.3600      0.000000
     1.3605      0.000000
     1.3610      0.000070
     1.3615      0.000030
     1.3620      0.000030
     1.3625      0.000090
     1.3630      0.000240
     1.3635      0.000000
     1.3640      0.000260
     1.3645      0.000360
     1.3650      0.000120
     1.3655      0.000000
     1.3660      0.000110
     1.3665      0.000000
     1.3670      0.000000
     1.3675      0.000160
     1.3680      0.000990
     1.3685      0.000000
     1.3690      0.000000
     1.3695      0.000000
     1.3700      0.000640
     1.3705      0.000340
     1.3710      0.001120
     1.3715      0.000670
     1.3720      0.000000
     1.3725      0.000120
     1.3730      0.000060
     1.3735      0.000980
     1.3740      0.000000
     1.3745      0.000050
     1.3750      0.000000
     1.3755      0.000260
     1.3760      0.000150
     1.3765      0.000000
     1.3770      0.000000
     1.3775      0.000000
     1.3780      0.000050
     1.3785      0.001440
     1.3790      0.000330
     1.3795      0.000000
     1.3800      0.000010
     1.3805      0.000250
     1.3810      0.000060
     1.3815      0.000360
     1.3820      0.000030
     1.3825      0.000560
     1.3830      0.000070
     1.3835      0.000030
     1.3840      0.000330
     1.3845      0.000000
     1.3850      0.000080
     1.3855      0.000000
     1.3860      0.000310
     1.3865      0.000010
     1.3870      0.000640
     1.3875      0.000000
     1.3880      0.000000
     1.3885      0.000040
     1.3890      0.000500
     1.3895      0.000360
     1.3900      0.000000
     1.3905      0.000250
     1.3910      0.000300
     1.3915      0.000180
     1.3920      0.000160
     1.3925      0.000830
     1.3930      0.000050
     1.3935      0.000690
     1.3940      0.000020
     1.3945      0.000000
     1.3950      0.000410
     1.3955      0.000090
     1.3960      0.000200
     1.3965      0.000010
     1.3970      0.000330
     1.3975      0.000180
     1.3980      0.000010
     1.3985      0.000000
     1.3990      0.000000
     1.3995      0.000080
     1.4000      0.000000
     1.4005      0.000200
     1.4010      0.000110
     1.4015      0.000000
     1.4020      0.000000
     1.4025      0.000100
     1.4030      0.000140
     1.4035      0.000000
     1.4040      0.000290
     1.4045      0.000490
     1.4050      0.000440
     1.4055      0.000750
     1.4060      0.000320
     1.4065      0.000500
     1.4070      0.000870
     1.4075      0.000000
     1.4080      0.000370
     1.4085      0.001310
     1.4090      0.000370
     1.4095      0.000280
     1.4100      0.000000
     1.4105      0.000000
     1.4110      0.000790
     1.4115      0.000250
     1.4120      0.000050
     1.4125      0.000580
     1.4130      0.000000
     1.4135      0.001260
     1.4140      0.000730
     1.4145      0.000390
     1.4150      0.000000
     1.4155      0.000000
     1.4160      0.000330
     1.4165      0.000000
     1.4170      0.000520
     1.4175      0.000040
     1.4180      0.000000
     1.4185      0.000080
     1.4190      0.000980
     1.4195      0.001100
     1.4200      0.000430
     1.4205      0.000210
     1.4210      0.000830
     1.4215      0.000000
     1.4220      0.000050
     1.4225      0.000550
     1.4230      0.000930
     1.4235      0.000020
     1.4240      0.000230
     1.4245      0.000190
     1.4250      0.000020
     1.4255      0.000000
     1.4260      0.000390
     1.4265      0.000880
     1.4270      0.000410
     1.4275      0.000880
     1.4280      0.001210
     1.4285      0.000850
     1.4290      0.000420
     1.4295      0.000000
     1.4300      0.000000
     1.4305      0.000000
     1.4310      0.000600
     1.4315      0.000280
     1.4320      0.000000
     1.4325      0.000970
     1.4330      0.000280
     1.4335      0.000360
     1.4340      0.001840
     1.4345      0.001640
     1.4350      0.000690
     1.4355      0.000300
     1.4360      0.000350
     1.4365      0.000690
     1.4370      0.000430
     1.4375      0.000000
     1.4380      0.000850
     1.4385      0.000130
     1.4390      0.001110
     1.4395      0.001580
     1.4400      0.000620
     1.4405      0.000170
     1.4410      0.000000
     1.4415      0.000050
     1.4420      0.000040
     1.4425      0.000070
     1.4430      0.000010
     1.4435      0.000000
     1.4440      0.000900
     1.4445      0.000600
     1.4450      0.000320
     1.4455      0.000210
     1.4460      0.000350
     1.4465      0.000920
     1.4470      0.000050
     1.4475      0.000530
     1.4480      0.000000
     1.4485      0.000340
     1.4490      0.000280
     1.4495      0.000350
     1.4500      0.001060
     1.4505      0.000780
     1.4510      0.000960
     1.4515      0.000000
     1.4520      0.000000
     1.4525      0.001290
     1.4530      0.000730
     1.4535      0.000000
     1.4540      0.000000
     1.4545      0.000440
     1.4550      0.000570
     1.4555      0.000240
     1.4560      0.000800
     1.4565      0.001020
     1.4570      0.000520
     1.4575      0.000210
     1.4580      0.000510
     1.4585      0.000070
     1.4590      0.000850
     1.4595      0.000000
     1.4600      0.000000
     1.4605      0.000430
     1.4610      0.000050
     1.4615      0.000000
     1.4620      0.000390
     1.4625      0.000010
     1.4630      0.000240
     1.4635      0.000000
     1.4640      0.000130
     1.4645      0.000540
     1.4650      0.000500
     1.4655      0.000450
     1.4660      0.000820
     1.4665      0.000590
     1.4670      0.000000
     1.4675      0.000750
     1.4680      0.000570
     1.4685      0.000430
     1.4690      0.000550
     1.4695      0.001110
     1.4700      0.000140
     1.4705      0.000260
     1.4710      0.000000
     1.4715      0.000400
     1.4720      0.000070
     1.4725      0.000000
     1.4730      0.000000
     1.4735      0.000160
     1.4740      0.000220
     1.4745      0.000810
     1.4750      0.001420
     1.4755      0.000910
     1.4760      0.001360
     1.4765      0.001050
     1.4770      0.000000
     1.4775      0.000760
     1.4780      0.000000
     1.4785      0.000330
     1.4790      0.000840
     1.4795      0.000100
     1.4800      0.000760
     1.4805      0.000190
     1.4810      0.000840
     1.4815      0.000950
     1.4820      0.000010
     1.4825      0.000410
     1.4830      0.001090
     1.4835      0.000820
     1.4840      0.000960
     1.4845      0.000360
     1.4850      0.000110
     1.4855      0.000420
     1.4860      0.000060
     1.4865      0.001040
     1.4870      0.000010
     1.4875      0.000000
     1.4880      0.000420
     1.4885      0.001010
     1.4890      0.000020
     1.4895      0.000350
     1.4900      0.000310
     1.4905      0.000270
     1.4910      0.000000
     1.4915      0.000110
     1.4920      0.000000
     1.4925      0.000000
     1.4930      0.000000
     1.4935      0.000000
     1.4940      0.000360
     1.4945      0.000300
     1.4950      0.001250
     1.4955      0.000170
     1.4960      0.000420
     1.4965      0.000840
     1.4970      0.000860
     1.4975      0.000840
     1.4980      0.000150
     1.4985      0.000330
     1.4990      0.000470
     1.4995      0.000280
     1.5000      0.001300
     1.5005      0.000500
     1.5010      0.000620
     1.5015      0.000170
     1.5020      0.000250
     1.5025      0.000660
     1.5030      0.000560
     1.5035      0.000100
     1.5040      0.000740
     1.5045      0.000350
     1.5050      0.000000
     1.5055      0.000280
     1.5060      0.000120
     1.5065      0.000100
     1.5070      0.000990
     1.5075      0.000500
     1.5080      0.000880
     1.5085      0.000160
     1.5090      0.000000
     1.5095      0.000860
     1.5100      0.000230
     1.5105      0.000270
     1.5110      0.000000
     1.5115      0.000000
     1.5120      0.000520
     1.5125      0.000070
     1.5130      0.000040
     1.5135      0.000120
     1.5140      0.000120
     1.5145      0.000030
     1.5150      0.000540
     1.5155      0.000000
     1.5160      0.000990
     1.5165      0.000510
     1.5170      0.000000
     1.5175      0.000640
     1.5180      0.000210
     1.5185      0.000630
     1.5190      0.000790
     1.5195      0.000270
     1.5200      0.000260
     1.5205      0.000000
     1.5210      0.000000
     1.5215      0.000750
     1.5220      0.000310
     1.5225      0.000130
     1.5230      0.001080
     1.5235      0.000730
     1.5240      0.000820
     1.5245      0.000300
     1.5250      0.000460
     1.5255      0.001250
     1.5260      0.000330
     1.5265      0.000620
     1.5270      0.000790
     1.5275      0.000180
     1.5280      0.000000
     1.5285      0.000660
     1.5290      0.000530
     1.5295      0.000280
     1.5300      0.000270
     1.5305      0.000480
     1.5310      0.000000
     1.5315      0.000000
     1.5320      0.000250
     1.5325      0.000090
     1.5330      0.000000
     1.5335      0.000860
     1.5340      0.000070
     1.5345      0.000340
     1.5350      0.000080
     1.5355      0.000030
     1.5360      0.000290
     1.5365      0.000680
     1.5370      0.000060
     1.5375      0.000310
     1.5380      0.000000
     1.5385      0.000260
     1.5390      0.001510
     1.5395      0.000520
     1.5400      0.000000
     1.5405      0.000000
     1.5410      0.000000
     1.5415      0.000000
     1.5420      0.000290
     1.5425      0.000580
     1.5430      0.001180
     1.5435      0.000130
     1.5440      0.000090
     1.5445      0.000750
     1.5450      0.000080
     1.5455      0.000000
     1.5460      0.000000
     1.5465      0.000120
     1.5470      0.000130
     1.5475      0.000630
     1.5480      0.000240
     1.5485      0.000090
     1.5490      0.000130
     1.5495      0.000250
     1.5500      0.001090
     1.5505      0.000030
     1.5510      0.000700
     1.5515      0.000010
     1.5520      0.000530
     1.5525      0.000000
     1.5530      0.000000
     1.5535      0.000000
     1.5540      0.000000
     1.5545      0.000000
     1.5550      0.000000
     1.5555      0.000150
     1.5560      0.000000
     1.5565      0.000000
     1.5570      0.000260
     1.5575      0.000020
     1.5580      0.000000
     1.5585      0.000000
     1.5590      0.000430
     1.5595      0.000220
     1.5600      0.000000
     1.5605      0.000000
     1.5610      0.000440
     1.5615      0.000470
     1.5620      0.000000
     1.5625      0.000020
     1.5630      0.000020
     1.5635      0.000050
     1.5640      0.000070
     1.5645      0.000010
     1.5650      0.000320
     1.5655      0.000260
     1.5660      0.000140
     1.5665      0.000480
     1.5670      0.000310
     1.5675      0.000330
     1.5680      0.000250
     1.5685      0.000000
     1.5690      0.000010
     1.5695      0.000000
     1.5700      0.000000
     1.5705      0.000000
     1.5710      0.000550
     1.5715      0.000290
     1.5720      0.000040
     1.5725      0.000000
     1.5730      0.000130
     1.5735      0.000630
     1.5740      0.000000
     1.5745      0.000170
     1.5750      0.000000
     1.5755      0.000660
     1.5760      0.000000
     1.5765      0.000000
     1.5770      0.000000
     1.5775      0.000000
     1.5780      0.001410
     1.5785      0.000000
     1.5790      0.000160
     1.5795      0.000940
     1.5800      0.000000
     1.5805      0.000000
     1.5810      0.002310
     1.5815      0.000200
     1.5820      0.000140
     1.5825      0.000000
     1.5830      0.000000
     1.5835      0.000720
     1.5840      0.000350
     1.5845      0.000620
     1.5850      0.000050
     1.5855      0.000200
     1.5860      0.000450
     1.5865      0.000580
     1.5870      0.000000
     1.5875      0.000000
     1.5880      0.000230
     1.5885      0.000170
     1.5890      0.000820
     1.5895      0.001010
     1.5900      0.000150
     1.5905      0.000210
     1.5910      0.000320
     1.5915      0.000720
     1.5920      0.000370
     1.5925      0.001090
     1.5930      0.000180
     1.5935      0.000300
     1.5940      0.000030
     1.5945      0.000270
     1.5950      0.001180
     1.5955      0.000880
     1.5960      0.000740
     1.5965      0.001330
     1.5970      0.001330
     1.5975      0.001230
     1.5980      0.001290
     1.5985      0.002140
     1.5990      0.002180
     1.5995      0.002370
     1.6000      0.001790
     1.6005      0.001390
     1.6010      0.002630
     1.6015      0.002720
     1.6020      0.002930
     1.6025      0.002700
     1.6030      0.002500
     1.6035      0.002340
     1.6040      0.002260
     1.6045      0.001440
     1.6050      0.001140
     1.6055      0.000680
     1.6060      0.001700
     1.6065      0.001670
     1.6070      0.001280
     1.6075      0.001350
     1.6080      0.002210
     1.6085      0.001310
     1.6090      0.000220
     1.6095      0.000710
     1.6100      0.000130
     1.6105      0.000000
     1.6110      0.000870
     1.6115      0.001430
     1.6120      0.000080
     1.6125      0.000000
     1.6130      0.000000
     1.6135      0.000000
     1.6140      0.001110
     1.6145      0.000750
     1.6150      0.000190
     1.6155      0.000570
     1.6160      0.000000
     1.6165      0.000260
     1.6170      0.000000
     1.6175      0.000000
     1.6180      0.000330
     1.6185      0.000220
     1.6190      0.000510
     1.6195      0.000160
     1.6200      0.000000
     1.6205      0.000000
     1.6210      0.000190
     1.6215      0.000700
     1.6220      0.000000
     1.6225      0.000000
     1.6230      0.000010
     1.6235      0.000010
     1.6240      0.000000
     1.6245      0.000360
     1.6250      0.000050
     1.6255      0.000000
     1.6260      0.000220
     1.6265      0.000000
     1.6270      0.000000
     1.6275      0.000520
     1.6280      0.000210
     1.6285      0.000520
     1.6290      0.000140
     1.6295      0.000000
     1.6300      0.000300
     1.6305      0.000000
     1.6310      0.000000
     1.6315      0.000530
     1.6320      0.000270
     1.6325      0.000000
     1.6330      0.000160
     1.6335      0.000630
     1.6340      0.000990
     1.6345      0.000590
     1.6350      0.000260
     1.6355      0.000390
     1.6360      0.000780
     1.6365      0.000840
     1.6370      0.000130
     1.6375      0.000740
     1.6380      0.000100
     1.6385      0.000670
     1.6390      0.001320
     1.6395      0.001010
     1.6400      0.000310
     1.6405      0.000040
     1.6410      0.000350
     1.6415      0.000640
     1.6420      0.000440
     1.6425      0.000350
     1.6430      0.001090
     1.6435      0.000950
     1.6440      0.000870
     1.6445      0.001290
     1.6450      0.001050
     1.6455      0.001420
     1.6460      0.002050
     1.6465      0.001680
     1.6470      0.001410
     1.6475      0.001510
     1.6480      0.002020
     1.6485      0.002480
     1.6490      0.002780
     1.6495      0.002870
     1.6500      0.003810
     1.6505      0.004560
     1.6510      0.005040
     1.6515      0.005450
     1.6520      0.007470
     1.6525      0.009950
     1.6530      0.012690
     1.6535      0.016790
     1.6540      0.021490
     1.6545      0.022500
     1.6550      0.020000
     1.6555      0.015580
     1.6560      0.011120
     1.6565      0.008340
     1.6570      0.006440
     1.6575      0.004240
     1.6580      0.003510
     1.6585      0.003620
     1.6590      0.002940
     1.6595      0.002450
     1.6600      0.002310
     1.6605      0.001990
     1.6610      0.001570
     1.6615      0.001420
     1.6620      0.000860
     1.6625      0.001120
     1.6630      0.001000
     1.6635      0.000920
     1.6640      0.000870
     1.6645      0.000790
     1.6650      0.001010
     1.6655      0.000790
     1.6660      0.000170
     1.6665      0.000480
     1.6670      0.000510
     1.6675      0.000130
     1.6680      0.000460
     1.6685      0.000540
     1.6690      0.000610
     1.6695      0.000000
     1.6700      0.000000
     1.6705      0.000300
     1.6710      0.000000
     1.6715      0.000290
     1.6720      0.000000
     1.6725      0.000580
     1.6730      0.000480
     1.6735      0.000180
     1.6740      0.000430
     1.6745      0.000110
     1.6750      0.000530
     1.6755      0.000590
     1.6760      0.001220
     1.6765      0.001240
     1.6770      0.001070
     1.6775      0.000180
     1.6780      0.000230
     1.6785      0.000000
     1.6790      0.000140
     1.6795      0.000490
     1.6800      0.000010
     1.6805      0.000350
     1.6810      0.000490
     1.6815      0.000110
     1.6820      0.000000
     1.6825      0.000000
     1.6830      0.000000
     1.6835      0.000000
     1.6840      0.000400
     1.6845      0.000450
     1.6850      0.000140
     1.6855      0.000000
     1.6860      0.000150
     1.6865      0.000140
     1.6870      0.000440
     1.6875      0.000510
     1.6880      0.000240
     1.6885      0.000170
     1.6890      0.000520
     1.6895      0.000790
     1.6900      0.000120
     1.6905      0.000000
     1.6910      0.000420
     1.6915      0.000090
     1.6920      0.000140
     1.6925      0.000000
     1.6930      0.000000
     1.6935      0.000090
     1.6940      0.000270
     1.6945      0.000260
     1.6950      0.000000
     1.6955      0.000220
     1.6960      0.000000
     1.6965      0.000340
     1.6970      0.000090
     1.6975      0.000020
     1.6980      0.000100
     1.6985      0.000030
     1.6990      0.000010
     1.6995      0.000170
     1.7000      0.000060
     1.7005      0.000280
     1.7010      0.000240
     1.7015      0.000230
     1.7020      0.000040
     1.7025      0.000450
     1.7030      0.000040
     1.7035      0.000510
     1.7040      0.001300
     1.7045      0.001560
     1.7050      0.001620
     1.7055      0.000560
     1.7060      0.000010
     1.7065      0.000000
     1.7070      0.000220
     1.7075      0.000690
     1.7080      0.000870
     1.7085      0.000450
     1.7090      0.000040
     1.7095      0.000060
     1.7100      0.000240
     1.7105      0.000420
     1.7110      0.000240
     1.7115      0.000440
     1.7120      0.000340
     1.7125      0.000010
     1.7130      0.000630
     1.7135      0.000710
     1.7140      0.000090
     1.7145      0.000010
     1.7150      0.000340
     1.7155      0.000600
     1.7160      0.000030
     1.7165      0.000000
     1.7170      0.000000
     1.7175      0.000000
     1.7180      0.000000
     1.7185      0.000390
     1.7190      0.000010
     1.7195      0.000000
     1.7200      0.000000
     1.7205      0.000070
     1.7210      0.000350
     1.7215      0.000000
     1.7220      0.000000
     1.7225      0.000080
     1.7230      0.000000
     1.7235      0.000060
     1.7240      0.000000
     1.7245      0.000180
     1.7250      0.000230
     1.7255      0.000000
     1.7260      0.000000
     1.7265      0.000000
     1.7270      0.000000
     1.7275      0.000080
     1.7280      0.000080
     1.7285      0.000030
     1.7290      0.000070
     1.7295      0.000000
     1.7300      0.000090
     1.7305      0.000000
     1.7310      0.000000
     1.7315      0.000570
     1.7320      0.000260
     1.7325      0.000450
     1.7330      0.000150
     1.7335      0.000000
     1.7340      0.000000
     1.7345      0.000000
     1.7350      0.000130
     1.7355      0.000000
     1.7360      0.000240
     1.7365      0.000080
     1.7370      0.000230
     1.7375      0.000010
     1.7380      0.000140
     1.7385      0.000000
     1.7390      0.000000
     1.7395      0.000330
     1.7400      0.000060
     1.7405      0.000000
     1.7410      0.000000
     1.7415      0.000000
     1.7420      0.000160
     1.7425      0.000390
     1.7430      0.000130
     1.7435      0.000010
     1.7440      0.000240
     1.7445      0.000460
     1.7450      0.000210
     1.7455      0.000000
     1.7460      0.000050
     1.7465      0.000000
     1.7470      0.000000
     1.7475      0.000000
     1.7480      0.000010
     1.7485      0.000210
     1.7490      0.000000
     1.7495      0.000500
     1.7500      0.000540
     1.7505      0.000580
     1.7510      0.000370
     1.7515      0.000560
     1.7520      0.000480
     1.7525      0.000000
     1.7530      0.000000
     1.7535      0.000000
     1.7540      0.000000
     1.7545      0.000000
     1.7550      0.000030
     1.7555      0.000000
     1.7560      0.000350
     1.7565      0.000660
     1.7570      0.000380
     1.7575      0.000740
     1.7580      0.000570
     1.7585      0.000000
     1.7590      0.000000
     1.7595      0.000000
     1.7600      0.000210
     1.7605      0.000000
     1.7610      0.000000
     1.7615      0.000000
     1.7620      0.000000
     1.7625      0.000000
     1.7630      0.000000
     1.7635      0.000000
     1.7640      0.000000
     1.7645      0.000000
     1.7650      0.000050
     1.7655      0.000320
     1.7660      0.000220
     1.7665      0.000000
     1.7670      0.000000
     1.7675      0.000000
     1.7680      0.000000
     1.7685      0.000150
     1.7690      0.000460
     1.7695      0.000000
     1.7700      0.000100
     1.7705      0.000230
     1.7710      0.000030
     1.7715      0.000700
     1.7720      0.000360
     1.7725      0.000000
     1.7730      0.000000
     1.7735      0.000000
     1.7740      0.000000
     1.7745      0.000000
     1.7750      0.000260
     1.7755      0.000220
     1.7760      0.000000
     1.7765      0.000000
     1.7770      0.000000
     1.7775      0.000030
     1.7780      0.000120
     1.7785      0.000450
     1.7790      0.000290
     1.7795      0.000020
     1.7800      0.000110
     1.7805      0.000400
     1.7810      0.000500
     1.7815      0.000520
     1.7820      0.000720
     1.7825      0.000470
     1.7830      0.000250
     1.7835      0.000000
     1.7840      0.000120
     1.7845      0.000220
     1.7850      0.000000
     1.7855      0.000030
     1.7860      0.000260
     1.7865      0.000000
     1.7870      0.000370
     1.7875      0.000130
     1.7880      0.000000
     1.7885      0.000000
     1.7890      0.000000
     1.7895      0.000000
     1.7900      0.000440
     1.7905      0.000620
     1.7910      0.000570
     1.7915      0.000060
     1.7920      0.000180
     1.7925      0.000100
     1.7930      0.000100
     1.7935      0.000370
     1.7940      0.000390
     1.7945      0.000380
     1.7950      0.000000
     1.7955      0.000060
     1.7960      0.000030
     1.7965      0.000040
     1.7970      0.000240
     1.7975      0.000280
     1.7980      0.000130
     1.7985      0.000280
     1.7990      0.000360
     1.7995      0.000350
     1.8000      0.000060
     1.8005      0.000000
     1.8010      0.000300
     1.8015      0.000410
     1.8020      0.000230
     1.8025      0.000000
     1.8030      0.000000
     1.8035      0.000040
     1.8040      0.000000
     1.8045      0.000030
     1.8050      0.000160
     1.8055      0.000000
     1.8060      0.000000
     1.8065      0.000010
     1.8070      0.000020
     1.8075      0.000000
     1.8080      0.000040
     1.8085      0.000000
     1.8090      0.000000
     1.8095      0.000000
     1.8100      0.000000
     1.8105      0.000190
     1.8110      0.000020
     1.8115      0.000000
     1.8120      0.000000
     1.8125      0.000000
     1.8130      0.000000
     1.8135      0.000030
     1.8140      0.000600
     1.8145      0.000300
     1.8150      0.000000
     1.8155      0.000000
     1.8160      0.000000
     1.8165      0.000000
     1.8170      0.000270
     1.8175      0.000110
     1.8180      0.000250
     1.8185      0.000520
     1.8190      0.000470
     1.8195      0.000070
     1.8200      0.000230
     1.8205      0.000760
     1.8210      0.000710
     1.8215      0.000400
     1.8220      0.000000
     1.8225      0.000750
     1.8230      0.000470
     1.8235      0.000000
     1.8240      0.000120
     1.8245      0.000020
     1.8250      0.000390
     1.8255      0.000400
     1.8260      0.000100
     1.8265      0.000000
     1.8270      0.000060
     1.8275      0.000010
     1.8280      0.000310
     1.8285      0.000000
     1.8290      0.000150
     1.8295      0.000940
     1.8300      0.000480
     1.8305      0.000050
     1.8310      0.000090
     1.8315      0.000000
     1.8320      0.000000
     1.8325      0.000260
     1.8330      0.000680
     1.8335      0.000470
     1.8340      0.000000
     1.8345      0.000040
     1.8350      0.000650
     1.8355      0.001000
     1.8360      0.000120
     1.8365      0.000130
     1.8370      0.000000
     1.8375      0.000000
     1.8380      0.000000
     1.8385      0.000000
     1.8390      0.000000
     1.8395      0.000590
     1.8400      0.000720
     1.8405      0.000710
     1.8410      0.000710
     1.8415      0.000000
     1.8420      0.000000
     1.8425      0.000000
     1.8430      0.000000
     1.8435      0.000080
     1.8440      0.000470
     1.8445      0.000290
     1.8450      0.000420
     1.8455      0.000000
     1.8460      0.000000
     1.8465      0.000340
     1.8470      0.000420
     1.8475      0.000070
     1.8480      0.000010
     1.8485      0.000270
     1.8490      0.000000
     1.8495      0.000230
     1.8500      0.000800
     1.8505      0.000660
     1.8510      0.000180
     1.8515      0.000090
     1.8520      0.000820
     1.8525      0.000300
     1.8530      0.000000
     1.8535      0.000000
     1.8540      0.000020
     1.8545      0.000040
     1.8550      0.000010
     1.8555      0.000070
     1.8560      0.000200
     1.8565      0.000270
     1.8570      0.000230
     1.8575      0.000140
     1.8580      0.000070
     1.8585      0.000220
     1.8590      0.000030
     1.8595      0.000000
     1.8600      0.000000
     1.8605      0.000000
     1.8610      0.000010
     1.8615      0.000010
     1.8620      0.000300
     1.8625      0.000760
     1.8630      0.000220
     1.8635      0.000000
     1.8640      0.000080
     1.8645      0.000530
     1.8650      0.000330
     1.8655      0.000070
     1.8660      0.000280
     1.8665      0.000040
     1.8670      0.000250
     1.8675      0.000130
     1.8680      0.000000
     1.8685      0.000320
     1.8690      0.000690
     1.8695      0.000570
     1.8700      0.000190
     1.8705      0.000070
     1.8710      0.000000
     1.8715      0.000000
     1.8720      0.000000
     1.8725      0.000000
     1.8730      0.000520
     1.8735      0.001000
     1.8740      0.000650
     1.8745      0.000440
     1.8750      0.000310
     1.8755      0.000580
     1.8760      0.000900
     1.8765      0.000370
     1.8770      0.000310
     1.8775      0.000040
     1.8780      0.000000
     1.8785      0.000000
     1.8790      0.000000
     1.8795      0.000000
     1.8800      0.000000
     1.8805      0.000000
     1.8810      0.000290
     1.8815      0.001080
     1.8820      0.000630
     1.8825      0.000330
     1.8830      0.000240
     1.8835      0.000360
     1.8840      0.000210
     1.8845      0.000220
     1.8850      0.000170
     1.8855      0.000000
     1.8860      0.000210
     1.8865      0.000030
     1.8870      0.000150
     1.8875      0.000260
     1.8880      0.000140
     1.8885      0.000230
     1.8890      0.000140
     1.8895      0.000030
     1.8900      0.000230
     1.8905      0.000070
     1.8910      0.000190
     1.8915      0.000150
     1.8920      0.000130
     1.8925      0.000010
     1.8930      0.000120
     1.8935      0.000290
     1.8940      0.000250
     1.8945      0.000110
     1.8950      0.000000
     1.8955      0.000390
     1.8960      0.000600
     1.8965      0.000120
     1.8970      0.000370
     1.8975      0.000280
     1.8980      0.000130
     1.8985      0.000200
     1.8990      0.000020
     1.8995      0.000000
     1.9000      0.000000
     1.9005      0.000000
     1.9010      0.000000
     1.9015      0.000090
     1.9020      0.000210
     1.9025      0.000340
     1.9030      0.000180
     1.9035      0.000000
     1.9040      0.000050
     1.9045      0.000000
     1.9050      0.000000
     1.9055      0.000000
     1.9060      0.000360
     1.9065      0.000430
     1.9070      0.000390
     1.9075      0.000360
     1.9080      0.000550
     1.9085      0.000520
     1.9090      0.000660
     1.9095      0.000730
     1.9100      0.000710
     1.9105      0.000800
     1.9110      0.000480
     1.9115      0.000740
     1.9120      0.000660
     1.9125      0.000350
     1.9130      0.000030
     1.9135      0.000250
     1.9140      0.000210
     1.9145      0.000240
     1.9150      0.000110
     1.9155      0.000210
     1.9160      0.000690
     1.9165      0.000800
     1.9170      0.000760
     1.9175      0.000550
     1.9180      0.000900
     1.9185      0.000940
     1.9190      0.000900
     1.9195      0.000370
     1.9200      0.000220
     1.9205      0.000120
     1.9210      0.000000
     1.9215      0.000120
     1.9220      0.000450
     1.9225      0.000260
     1.9230      0.000020
     1.9235      0.000010
     1.9240      0.000480
     1.9245      0.001100
     1.9250      0.000650
     1.9255      0.000220
     1.9260      0.000270
     1.9265      0.000420
     1.9270      0.000320
     1.9275      0.000610
     1.9280      0.000420
     1.9285      0.000250
     1.9290      0.000370
     1.9295      0.000130
     1.9300      0.000000
     1.9305      0.000000
     1.9310      0.000000
     1.9315      0.000030
     1.9320      0.000000
     1.9325      0.000000
     1.9330      0.000070
     1.9335      0.000000
     1.9340      0.000020
     1.9345      0.000000
     1.9350      0.000130
     1.9355      0.000300
     1.9360      0.000240
     1.9365      0.000000
     1.9370      0.000110
     1.9375      0.000000
     1.9380      0.000000
     1.9385      0.000070
     1.9390      0.000180
     1.9395      0.000180
     1.9400      0.000170
     1.9405      0.000160
     1.9410      0.000090
     1.9415      0.000000
     1.9420      0.000000
     1.9425      0.000070
     1.9430      0.000000
     1.9435      0.000000
     1.9440      0.000060
     1.9445      0.000000
     1.9450      0.000120
     1.9455      0.000630
     1.9460      0.000590
     1.9465      0.000370
     1.9470      0.000020
     1.9475      0.000080
     1.9480      0.000220
     1.9485      0.000090
     1.9490      0.000570
     1.9495      0.000760
     1.9500      0.000710
     1.9505      0.000270
     1.9510      0.000360
     1.9515      0.000410
     1.9520      0.000190
     1.9525      0.000170
     1.9530      0.000510
     1.9535      0.000190
     1.9540      0.000010
     1.9545      0.000270
     1.9550      0.000580
     1.9555      0.000330
     1.9560      0.000360
     1.9565      0.000470
     1.9570      0.000190
     1.9575      0.000010
     1.9580      0.000400
     1.9585      0.000710
     1.9590      0.000610
     1.9595      0.000590
     1.9600      0.000220
     1.9605      0.000240
     1.9610      0.000500
     1.9615      0.000350
     1.9620      0.000680
     1.9625      0.000810
     1.9630      0.000460
     1.9635      0.000200
     1.9640      0.000180
     1.9645      0.000090
     1.9650      0.000090
     1.9655      0.000160
     1.9660      0.000450
     1.9665      0.000590
     1.9670      0.000450
     1.9675      0.000210
     1.9680      0.000250
     1.9685      0.000530
     1.9690      0.000730
     1.9695      0.000540
     1.9700      0.000580
     1.9705      0.000620
     1.9710      0.000320
     1.9715      0.000410
     1.9720      0.000060
     1.9725      0.000210
     1.9730      0.000350
     1.9735      0.000030
     1.9740      0.000070
     1.9745      0.000360
     1.9750      0.000080
     1.9755      0.000150
     1.9760      0.000160
     1.9765      0.000250
     1.9770      0.000000
     1.9775      0.000000
     1.9780      0.000000
     1.9785      0.000000
     1.9790      0.000000
     1.9795      0.000340
     1.9800      0.000430
     1.9805      0.000150
     1.9810      0.000000
     1.9815      0.000010
     1.9820      0.000230
     1.9825      0.000400
     1.9830      0.000280
     1.9835      0.000420
     1.9840      0.000570
     1.9845      0.000040
     1.9850      0.000000
     1.9855      0.000000
     1.9860      0.000090
     1.9865      0.000210
     1.9870      0.000360
     1.9875      0.000580
     1.9880      0.000630
     1.9885      0.000680
     1.9890      0.000590
     1.9895      0.000280
     1.9900      0.000050
     1.9905      0.000210
     1.9910      0.000710
     1.9915      0.000610
     1.9920      0.000460
     1.9925      0.000120
     1.9930      0.000080
     1.9935      0.000440
     1.9940      0.000190
     1.9945      0.000010
     1.9950      0.000160
     1.9955      0.000390
     1.9960      0.000540
     1.9965      0.000160
     1.9970      0.000190
     1.9975      0.000510
     1.9980      0.000090
     1.9985      0.000080
     1.9990      0.000030
     1.9995      0.000190
     2.0000      0.000260
     2.0005      0.000000
     2.0010      0.000000
     2.0015      0.000000
     2.0020      0.000000
     2.0025      0.000000
     2.0030      0.000450
     2.0035      0.000640
     2.0040      0.000210
     2.0045      0.000360
     2.0050      0.000420
     2.0055      0.000120
     2.0060      0.000280
     2.0065      0.000430
     2.0070      0.000140
     2.0075      0.000000
     2.0080      0.000000
     2.0085      0.000000
     2.0090      0.000070
     2.0095      0.000250
     2.0100      0.000140
     2.0105      0.000000
     2.0110      0.000000
     2.0115      0.000010
     2.0120      0.000050
     2.0125      0.000050
     2.0130      0.000000
     2.0135      0.000030
     2.0140      0.000000
     2.0145      0.000000
     2.0150      0.000140
     2.0155      0.000230
     2.0160      0.000080
     2.0165      0.000000
     2.0170      0.000310
     2.0175      0.000710
     2.0180      0.000410
     2.0185      0.000010
     2.0190      0.000000
     2.0195      0.000000
     2.0200      0.000100
     2.0205      0.000070
     2.0210      0.000000
     2.0215      0.000000
     2.0220      0.000000
     2.0225      0.000200
     2.0230      0.000160
     2.0235      0.000000
     2.0240      0.000000
     2.0245      0.000000
     2.0250      0.000230
     2.0255      0.000360
     2.0260      0.000270
     2.0265      0.000520
     2.0270      0.000300
     2.0275      0.000250
     2.0280      0.000370
     2.0285      0.000390
     2.0290      0.000160
     2.0295      0.000010
     2.0300      0.000320
     2.0305      0.000470
     2.0310      0.000660
     2.0315      0.000130
     2.0320      0.000010
     2.0325      0.000070
     2.0330      0.000180
     2.0335      0.000270
     2.0340      0.000000
     2.0345      0.000000
     2.0350      0.000000
     2.0355      0.000000
     2.0360      0.000370
     2.0365      0.000600
     2.0370      0.000160
     2.0375      0.000060
     2.0380      0.000210
     2.0385      0.000460
     2.0390      0.000410
     2.0395      0.000500
     2.0400      0.000180
     2.0405      0.000000
     2.0410      0.000000
     2.0415      0.000000
     2.0420      0.000000
     2.0425      0.000000
     2.0430      0.000000
     2.0435      0.000000
     2.0440      0.000200
     2.0445      0.000320
     2.0450      0.000380
     2.0455      0.000600
     2.0460      0.000420
     2.0465      0.000270
     2.0470      0.000060
     2.0475      0.000000
     2.0480      0.000000
     2.0485      0.000170
     2.0490      0.000000
     2.0495      0.000010
     2.0500      0.000000
     2.0505      0.000020
     2.0510      0.000110
     2.0515      0.000000
     2.0520      0.000170
     2.0525      0.000350
     2.0530      0.000210
     2.0535      0.000110
     2.0540      0.000020
     2.0545      0.000000
     2.0550      0.000030
     2.0555      0.000390
     2.0560      0.000680
     2.0565      0.000500
     2.0570      0.000350
     2.0575      0.000180
     2.0580      0.000280
     2.0585      0.000340
     2.0590      0.000200
     2.0595      0.000030
     2.0600      0.000090
     2.0605      0.000110
     2.0610      0.000010
     2.0615      0.000000
     2.0620      0.000000
     2.0625      0.000000
     2.0630      0.000000
     2.0635      0.000000
     2.0640      0.000000
     2.0645      0.000110
     2.0650      0.000080
     2.0655      0.000000
     2.0660      0.000170
     2.0665      0.000690
     2.0670      0.000860
     2.0675      0.000750
     2.0680      0.000600
     2.0685      0.000800
     2.0690      0.000400
     2.0695      0.000010
     2.0700      0.000100
     2.0705      0.000310
     2.0710      0.000330
     2.0715      0.000010
     2.0720      0.000000
     2.0725      0.000010
     2.0730      0.000000
     2.0735      0.000210
     2.0740      0.000380
     2.0745      0.000110
     2.0750      0.000450
     2.0755      0.000020
     2.0760      0.000040
     2.0765      0.000260
     2.0770      0.000120
     2.0775      0.000000
     2.0780      0.000010
     2.0785      0.000090
     2.0790      0.000030
     2.0795      0.000000
     2.0800      0.000000
     2.0805      0.000110
     2.0810      0.000000
     2.0815      0.000000
     2.0820      0.000130
     2.0825      0.000510
     2.0830      0.000260
     2.0835      0.000140
     2.0840      0.000210
     2.0845      0.000360
     2.0850      0.000290
     2.0855      0.000000
     2.0860      0.000000
     2.0865      0.000000
     2.0870      0.000000
     2.0875      0.000000
     2.0880      0.000140
     2.0885      0.000430
     2.0890      0.000320
     2.0895      0.000480
     2.0900      0.000480
     2.0905      0.000320
     2.0910      0.000460
     2.0915      0.000390
     2.0920      0.000290
     2.0925      0.000230
     2.0930      0.000250
     2.0935      0.000440
     2.0940      0.000000
     2.0945      0.000170
     2.0950      0.000340
     2.0955      0.000070
     2.0960      0.000000
     2.0965      0.000000
     2.0970      0.000000
     2.0975      0.000010
     2.0980      0.000030
     2.0985      0.000140
     2.0990      0.000320
     2.0995      0.000380
     2.1000      0.000240
     2.1005      0.000010
     2.1010      0.000100
     2.1015      0.000310
     2.1020      0.000340
     2.1025      0.000460
     2.1030      0.000610
     2.1035      0.000630
     2.1040      0.000160
     2.1045      0.000000
     2.1050      0.000020
     2.1055      0.000210
     2.1060      0.000050
     2.1065      0.000000
     2.1070      0.000220
     2.1075      0.000270
     2.1080      0.000000
     2.1085      0.000000
     2.1090      0.000020
     2.1095      0.000030
     2.1100      0.000000
     2.1105      0.000000
     2.1110      0.000000
     2.1115      0.000000
     2.1120      0.000000
     2.1125      0.000100
     2.1130      0.000050
     2.1135      0.000000
     2.1140      0.000100
     2.1145      0.000260
     2.1150      0.000170
     2.1155      0.000320
     2.1160      0.000280
     2.1165      0.000400
     2.1170      0.000790
     2.1175      0.000400
     2.1180      0.000120
     2.1185      0.000050
     2.1190      0.000000
     2.1195      0.000000
     2.1200      0.000170
     2.1205      0.000160
     2.1210      0.000530
     2.1215      0.000750
     2.1220      0.000310
     2.1225      0.000530
     2.1230      0.000780
     2.1235      0.000280
     2.1240      0.000000
     2.1245      0.000000
     2.1250      0.000210
     2.1255      0.000830
     2.1260      0.000740
     2.1265      0.000140
     2.1270      0.000000
     2.1275      0.000040
     2.1280      0.000330
     2.1285      0.000670
     2.1290      0.000550
     2.1295      0.000120
     2.1300      0.000120
     2.1305      0.000340
     2.1310      0.000290
     2.1315      0.000330
     2.1320      0.000500
     2.1325      0.000390
     2.1330      0.000270
     2.1335      0.000470
     2.1340      0.000610
     2.1345      0.000540
     2.1350      0.000660
     2.1355      0.000720
     2.1360      0.000680
     2.1365      0.000580
     2.1370      0.000270
     2.1375      0.000120
     2.1380      0.000600
     2.1385      0.000630
     2.1390      0.000290
     2.1395      0.000420
     2.1400      0.000570
     2.1405      0.000420
     2.1410      0.000050
     2.1415      0.000160
     2.1420      0.000480
     2.1425      0.000340
     2.1430      0.000110
     2.1435      0.000010
     2.1440      0.000190
     2.1445      0.000790
     2.1450      0.000840
     2.1455      0.000260
     2.1460      0.000420
     2.1465      0.000580
     2.1470      0.000530
     2.1475      0.000670
     2.1480      0.000560
     2.1485      0.000220
     2.1490      0.000080
     2.1495      0.000330
     2.1500      0.000760
     2.1505      0.000760
     2.1510      0.000420
     2.1515      0.000160
     2.1520      0.000150
     2.1525      0.000260
     2.1530      0.000070
     2.1535      0.000000
     2.1540      0.000180
     2.1545      0.000160
     2.1550      0.000230
     2.1555      0.000480
     2.1560      0.000210
     2.1565      0.000000
     2.1570      0.000000
     2.1575      0.000000
     2.1580      0.000200
     2.1585      0.000210
     2.1590      0.000280
     2.1595      0.000360
     2.1600      0.000620
     2.1605      0.000690
     2.1610      0.000640
     2.1615      0.000870
     2.1620      0.000940
     2.1625      0.000710
     2.1630      0.000890
     2.1635      0.001180
     2.1640      0.001140
     2.1645      0.001250
     2.1650      0.001250
     2.1655      0.000850
     2.1660      0.000710
     2.1665      0.000980
     2.1670      0.001010
     2.1675      0.001350
     2.1680      0.001620
     2.1685      0.001570
     2.1690      0.001730
     2.1695      0.001810
     2.1700      0.001880
     2.1705      0.001930
     2.1710      0.002020
     2.1715      0.002050
     2.1720      0.001880
     2.1725      0.001850
     2.1730      0.002090
     2.1735      0.002110
     2.1740      0.001960
     2.1745      0.002280
     2.1750      0.002410
     2.1755      0.002170
     2.1760      0.002290
     2.1765      0.002570
     2.1770      0.002720
     2.1775      0.002870
     2.1780      0.002850
     2.1785      0.002770
     2.1790      0.002870
     2.1795      0.003000
     2.1800      0.003020
     2.1805      0.002970
     2.1810      0.003170
     2.1815      0.003600
     2.1820      0.003750
     2.1825      0.003840
     2.1830      0.004400
     2.1835      0.005180
     2.1840      0.006000
     2.1845      0.006910
     2.1850      0.007770
     2.1855      0.008860
     2.1860      0.010540
     2.1865      0.012690
     2.1870      0.015610
     2.1875      0.019800
     2.1880      0.025100
     2.1885      0.031990
     2.1890      0.041890
     2.1895      0.056020
     2.1900      0.076150
     2.1905      0.104480
     2.1910      0.144390
     2.1915      0.200860
     2.1920      0.278340
     2.1925      0.378260
     2.1930      0.497000
     2.1935      0.623080
     2.1940      0.738340
     2.1945      0.825300
     2.1950      0.875520
     2.1955      0.896350
     2.1960      0.899400
     2.1965      0.893980
     2.1970      0.886890
     2.1975      0.881350
     2.1980      0.878230
     2.1985      0.877560
     2.1990      0.878260
     2.1995      0.879250
     2.2000      0.880400
     2.2005      0.880880
     2.2010      0.879300
     2.2015      0.876140
     2.2020      0.872500
     2.2025      0.867590
     2.2030      0.862230
     2.2035      0.857200
     2.2040      0.852010
     2.2045      0.847650
     2.2050      0.844830
     2.2055      0.843920
     2.2060      0.844440
     2.2065      0.845560
     2.2070      0.847820
     2.2075      0.850990
     2.2080      0.855160
     2.2085      0.860090
     2.2090      0.863920
     2.2095      0.866770
     2.2100      0.869100
     2.2105      0.870440
     2.2110      0.870830
     2.2115      0.869580
     2.2120      0.866350
     2.2125      0.862600
     2.2130      0.859290
     2.2135      0.855820
     2.2140      0.852060
     2.2145      0.848490
     2.2150      0.845490
     2.2155      0.843520
     2.2160      0.842790
     2.2165      0.843120
     2.2170      0.844630
     2.2175      0.846840
     2.2180      0.848930
     2.2185      0.851490
     2.2190      0.854190
     2.2195      0.856450
     2.2200      0.858510
     2.2205      0.860070
     2.2210      0.861010
     2.2215      0.861670
     2.2220      0.862480
     2.2225      0.863640
     2.2230      0.864710
     2.2235      0.864550
     2.2240      0.860840
     2.2245      0.849630
     2.2250      0.825050
     2.2255      0.780290
     2.2260      0.711440
     2.2265      0.620440
     2.2270      0.514990
     2.2275      0.407720
     2.2280      0.310960
     2.2285      0.231740
     2.2290      0.170670
     2.2295      0.125270
     2.2300      0.092220
     2.2305      0.068500
     2.2310      0.051760
     2.2315      0.039660
     2.2320      0.030630
     2.2325      0.024510
     2.2330      0.020130
     2.2335      0.016200
     2.2340      0.012970
     2.2345      0.010620
     2.2350      0.008860
     2.2355      0.007560
     2.2360      0.006510
     2.2365      0.005400
     2.2370      0.004500
     2.2375      0.004210
     2.2380      0.004050
     2.2385      0.003590
     2.2390      0.003370
     2.2395      0.003640
     2.2400      0.003580
     2.2405      0.003080
     2.2410      0.002930
     2.2415      0.002770
     2.2420      0.002530
     2.2425      0.002620
     2.2430      0.002840
     2.2435      0.002970
     2.2440      0.002660
     2.2445      0.002470
     2.2450      0.002770
     2.2455      0.002750
     2.2460      0.002390
     2.2465      0.002350
     2.2470      0.002650
     2.2475      0.002710
     2.2480      0.002420
     2.2485      0.002060
     2.2490      0.001830
     2.2495      0.002110
     2.2500      0.002320
     2.2505      0.001860
     2.2510      0.001480
     2.2515      0.001540
     2.2520      0.001930
     2.2525      0.002230
     2.2530      0.002000
     2.2535      0.001750
     2.2540      0.001670
     2.2545      0.001660
     2.2550      0.001910
     2.2555      0.002310
     2.2560      0.002580
     2.2565      0.002350
     2.2570      0.001780
     2.2575      0.001650
     2.2580      0.001840
     2.2585      0.002030
     2.2590      0.002230
     2.2595      0.002260
     2.2600      0.002210
     2.2605      0.002090
     2.2610      0.001680
     2.2615      0.001340
     2.2620      0.001330
     2.2625      0.000990
     2.2630      0.000500
     2.2635      0.000760
     2.2640      0.000960
     2.2645      0.000770
     2.2650      0.000860
     2.2655      0.000810
     2.2660      0.000530
     2.2665      0.000600
     2.2670      0.000720
     2.2675      0.000590
     2.2680      0.000810
     2.2685      0.001260
     2.2690      0.001160
     2.2695      0.000760
     2.2700      0.000720
     2.2705      0.001040
     2.2710      0.001360
     2.2715      0.001240
     2.2720      0.000810
     2.2725      0.000790
     2.2730      0.001090
     2.2735      0.001030
     2.2740      0.000600
     2.2745      0.000490
     2.2750      0.000850
     2.2755      0.000910
     2.2760      0.000640
     2.2765      0.000470
     2.2770      0.000220
     2.2775      0.000180
     2.2780      0.000570
     2.2785      0.000700
     2.2790      0.000270
     2.2795      0.000150
     2.2800      0.000700
     2.2805      0.000910
     2.2810      0.000800
     2.2815      0.000930
     2.2820      0.000880
     2.2825      0.000580
     2.2830      0.000410
     2.2835      0.000500
     2.2840      0.000730
     2.2845      0.000790
     2.2850      0.000630
     2.2855      0.000450
     2.2860      0.000290
     2.2865      0.000190
     2.2870      0.000350
     2.2875      0.000580
     2.2880      0.000860
     2.2885      0.001060
     2.2890      0.000920
     2.2895      0.000940
     2.2900      0.000910
     2.2905      0.000580
     2.2910      0.000440
     2.2915      0.000240
     2.2920      0.000030
     2.2925      0.000120
     2.2930      0.000210
     2.2935      0.000090
     2.2940      0.000170
     2.2945      0.000770
     2.2950      0.001140
     2.2955      0.000980
     2.2960      0.001040
     2.2965      0.001260
     2.2970      0.001290
     2.2975      0.001340
     2.2980      0.001180
     2.2985      0.000860
     2.2990      0.000780
     2.2995      0.000770
     2.3000      0.000580
     2.3005      0.000200
     2.3010      0.000020
     2.3015      0.000000
     2.3020      0.000070
     2.3025      0.000080
     2.3030      0.000030
     2.3035      0.000010
     2.3040      0.000000
     2.3045      0.000050
     2.3050      0.000180
     2.3055      0.000150
     2.3060      0.000010
     2.3065      0.000010
     2.3070      0.000020
     2.3075      0.000010
     2.3080      0.000000
     2.3085      0.000020
     2.3090      0.000110
     2.3095      0.000370
     2.3100      0.000840
     2.3105      0.000650
     2.3110      0.000000
     2.3115      0.000000
     2.3120      0.000040
     2.3125      0.000380
     2.3130      0.000470
     2.3135      0.000300
     2.3140      0.000120
     2.3145      0.000090
     2.3150      0.000260
     2.3155      0.000350
     2.3160      0.000360
     2.3165      0.000250
     2.3170      0.000130
     2.3175      0.000360
     2.3180      0.000470
     2.3185      0.000150
     2.3190      0.000000
     2.3195      0.000000
     2.3200      0.000080
     2.3205      0.000150
     2.3210      0.000270
     2.3215      0.000380
     2.3220      0.000320
     2.3225      0.000160
     2.3230      0.000000
     2.3235      0.000000
     2.3240      0.000110
     2.3245      0.000520
     2.3250      0.000790
     2.3255      0.000600
     2.3260      0.000200
     2.3265      0.000200
     2.3270      0.000440
     2.3275      0.000650
     2.3280      0.000450
     2.3285      0.000050
     2.3290      0.000000
     2.3295      0.000050
     2.3300      0.000050
     2.3305      0.000010
     2.3310      0.000000
     2.3315      0.000000
     2.3320      0.000010
     2.3325      0.000120
     2.3330      0.000270
     2.3335      0.000390
     2.3340      0.000390
     2.3345      0.000230
     2.3350      0.000180
     2.3355      0.000310
     2.3360      0.000280
     2.3365      0.000110
     2.3370      0.000000
     2.3375      0.000020
     2.3380      0.000640
     2.3385      0.000880
     2.3390      0.000280
     2.3395      0.000030
     2.3400      0.000110
     2.3405      0.000040
     2.3410      0.000000
     2.3415      0.000000
     2.3420      0.000030
     2.3425      0.000030
     2.3430      0.000010
     2.3435      0.000020
     2.3440      0.000010
     2.3445      0.000160
     2.3450      0.000580
     2.3455      0.000620
     2.3460      0.000130
     2.3465      0.000000
     2.3470      0.000000
     2.3475      0.000000
     2.3480      0.000000
     2.3485      0.000000
     2.3490      0.000000
     2.3495      0.000000
     2.3500      0.000120
     2.3505      0.000100
     2.3510      0.000020
     2.3515      0.000000
     2.3520      0.000000
     2.3525      0.000000
     2.3530      0.000000
     2.3535      0.000000
     2.3540      0.000000
     2.3545      0.000000
     2.3550      0.000000
     2.3555      0.000000
     2.3560      0.000000
     2.3565      0.000000
     2.3570      0.000000
     2.3575      0.000000
     2.3580      0.000000
     2.3585      0.000000
     2.3590      0.000030
     2.3595      0.000140
     2.3600      0.000220
     2.3605      0.000210
     2.3610      0.000340
     2.3615      0.000260
     2.3620      0.000160
     2.3625      0.000310
     2.3630      0.000210
     2.3635      0.000030
     2.3640      0.000000
     2.3645      0.000000
     2.3650      0.000000
     2.3655      0.000000
     2.3660      0.000000
     2.3665      0.000060
     2.3670      0.000130
     2.3675      0.000070
     2.3680      0.000000
     2.3685      0.000000
     2.3690      0.000000
     2.3695      0.000260
     2.3700      0.000040
     2.3705      0.000000
     2.3710      0.000000
     2.3715      0.000000
     2.3720      0.000000
     2.3725      0.000000
     2.3730      0.000090
     2.3735      0.000280
     2.3740      0.000360
     2.3745      0.000190
     2.3750      0.000000
     2.3755      0.000000
     2.3760      0.000000
     2.3765      0.000040
     2.3770      0.000300
     2.3775      0.000450
     2.3780      0.000260
     2.3785      0.000050
     2.3790      0.000000
     2.3795      0.000000
     2.3800      0.000000
     2.3805      0.000000
     2.3810      0.000010
     2.3815      0.000080
     2.3820      0.000250
     2.3825      0.000400
     2.3830      0.000370
     2.3835      0.000120
     2.3840      0.000000
     2.3845      0.000000
     2.3850      0.000000
     2.3855      0.000000
     2.3860      0.000000
     2.3865      0.000000
     2.3870      0.000000
     2.3875      0.000070
     2.3880      0.000070
     2.3885      0.000020
     2.3890      0.000000
     2.3895      0.000000
     2.3900      0.000060
     2.3905      0.000080
     2.3910      0.000000
     2.3915      0.000010
     2.3920      0.000000
     2.3925      0.000000
     2.3930      0.000160
     2.3935      0.000030
     2.3940      0.000000
     2.3945      0.000000
     2.3950      0.000000
     2.3955      0.000000
     2.3960      0.000000
     2.3965      0.000000
     2.3970      0.000020
     2.3975      0.000160
     2.3980      0.000010
     2.3985      0.000000
     2.3990      0.000000
     2.3995      0.000010
     2.4000      0.000010
     2.4005      0.000000
     2.4010      0.000050
     2.4015      0.000100
     2.4020      0.000020
     2.4025      0.000000
     2.4030      0.000000
     2.4035      0.000050
     2.4040      0.000020
     2.4045      0.000000
     2.4050      0.000000
     2.4055      0.000000
     2.4060      0.000000
     2.4065      0.000000
     2.4070      0.000000
     2.4075      0.000000
     2.4080      0.000000
     2.4085      0.000090
     2.4090      0.000170
     2.4095      0.000080
     2.4100      0.000090
     2.4105      0.000160
     2.4110      0.000080
     2.4115      0.000000
     2.4120      0.000000
     2.4125      0.000000
     2.4130      0.000000
     2.4135      0.000050
     2.4140      0.000240
     2.4145      0.000210
     2.4150      0.000090
     2.4155      0.000210
     2.4160      0.000480
     2.4165      0.000270
     2.4170      0.000040
     2.4175      0.000220
     2.4180      0.000080
     2.4185      0.000000
     2.4190      0.000050
     2.4195      0.000100
     2.4200      0.000060
     2.4205      0.000000
     2.4210      0.000010
     2.4215      0.000270
     2.4220      0.000160
     2.4225      0.000060
     2.4230      0.000020
     2.4235      0.000010
     2.4240      0.000100
     2.4245      0.000250
     2.4250      0.000130
     2.4255      0.000000
     2.4260      0.000000
     2.4265      0.000000
     2.4270      0.000150
     2.4275      0.000430
     2.4280      0.000550
     2.4285      0.000330
     2.4290      0.000000
     2.4295      0.000000
     2.4300      0.000060
     2.4305      0.000250
     2.4310      0.000520
     2.4315      0.000630
     2.4320      0.000520
     2.4325      0.000350
     2.4330      0.000250
     2.4335      0.000000
     2.4340      0.000000
     2.4345      0.000000
     2.4350      0.000230
     2.4355      0.000370
     2.4360      0.000230
     2.4365      0.000020
     2.4370      0.000100
     2.4375      0.000220
     2.4380      0.000020
     2.4385      0.000000
     2.4390      0.000000
     2.4395      0.000000
     2.4400      0.000000
     2.4405      0.000000
     2.4410      0.000000
     2.4415      0.000000
     2.4420      0.000000
     2.4425      0.000000
     2.4430      0.000000
     2.4435      0.000000
     2.4440      0.000000
     2.4445      0.000000
     2.4450      0.000000
     2.4455      0.000000
     2.4460      0.000000
     2.4465      0.000030
     2.4470      0.000020
     2.4475      0.000000
     2.4480      0.000000
     2.4485      0.000000
     2.4490      0.000000
     2.4495      0.000000
     2.4500      0.000000
     2.4505      0.000000
     2.4510      0.000050
     2.4515      0.000160
     2.4520      0.000340
     2.4525      0.000600
     2.4530      0.000500
     2.4535      0.000120
     2.4540      0.000000
     2.4545      0.000000
     2.4550      0.000000
     2.4555      0.000000
     2.4560      0.000000
     2.4565      0.000000
     2.4570      0.000000
     2.4575      0.000000
     2.4580      0.000000
     2.4585      0.000000
     2.4590      0.000000
     2.4595      0.000000
     2.4600      0.000000
     2.4605      0.000000
     2.4610      0.000000
     2.4615      0.000000
     2.4620      0.000000
     2.4625      0.000000
     2.4630      0.000000
     2.4635      0.000000
     2.4640      0.000000
     2.4645      0.000000
     2.4650      0.000000
     2.4655      0.000000
     2.4660      0.000000
     2.4665      0.000000
     2.4670      0.000000
     2.4675      0.000000
     2.4680      0.000000
     2.4685      0.000020
     2.4690      0.000070
     2.4695      0.000110
     2.4700      0.000000
     2.4705      0.000000
     2.4710      0.000020
     2.4715      0.000210
     2.4720      0.000220
     2.4725      0.000000
     2.4730      0.000000
     2.4735      0.000000
     2.4740      0.000000
     2.4745      0.000100
     2.4750      0.000090
     2.4755      0.000000
     2.4760      0.000000
     2.4765      0.000000
     2.4770      0.000000
     2.4775      0.000000
     2.4780      0.000080
     2.4785      0.000150
     2.4790      0.000110
     2.4795      0.000000
     2.4800      0.000000
     2.4805      0.000000
     2.4810      0.000000
     2.4815      0.000000
     2.4820      0.000000
     2.4825      0.000020
     2.4830      0.000160
     2.4835      0.000040
     2.4840      0.000000
     2.4845      0.000080
     2.4850      0.000240
     2.4855      0.000370
     2.4860      0.000280
     2.4865      0.000040
     2.4870      0.000000
     2.4875      0.000090
     2.4880      0.000210
     2.4885      0.000310
     2.4890      0.000390
     2.4895      0.000450
     2.4900      0.000380
     2.4905      0.000360
     2.4910      0.000430
     2.4915      0.000450
     2.4920      0.000200
     2.4925      0.000020
     2.4930      0.000020
     2.4935      0.000230
     2.4940      0.000270
     2.4945      0.000050
     2.4950      0.000000
     2.4955      0.000000
     2.4960      0.000000
     2.4965      0.000000
     2.4970      0.000060
     2.4975      0.000220
     2.4980      0.000470
     2.4985      0.000210
     2.4990      0.000050
     2.4995      0.000080
     2.5000      0.000220
     2.5005      0.000320
     2.5010      0.000330
     2.5015      0.000780
     2.5020      0.001010
     2.5025      0.000790
     2.5030      0.000360
     2.5035      0.000060
     2.5040      0.000000
     2.5045      0.000000
     2.5050      0.000000
     2.5055      0.000000
     2.5060      0.000000
     2.5065      0.000000
     2.5070      0.000030
     2.5075      0.000140
     2.5080      0.000090
     2.5085      0.000020
     2.5090      0.000000
     2.5095      0.000000
     2.5100      0.000000
     2.5105      0.000000
     2.5110      0.000000
     2.5115      0.000000
     2.5120      0.000000
     2.5125      0.000000
     2.5130      0.000000
     2.5135      0.000120
     2.5140      0.000340
     2.5145      0.000510
     2.5150      0.000480
     2.5155      0.000400
     2.5160      0.000610
     2.5165      0.000850
     2.5170      0.000920
     2.5175      0.000780
     2.5180      0.000640
     2.5185      0.000620
     2.5190      0.000500
     2.5195      0.000230
     2.5200      0.000000
     2.5205      0.000000
     2.5210      0.000000
     2.5215      0.000180
     2.5220      0.000290
     2.5225      0.000340
     2.5230      0.000380
     2.5235      0.000490
     2.5240      0.000410
     2.5245      0.000310
     2.5250      0.000310
     2.5255      0.000370
     2.5260      0.000330
     2.5265      0.000200
     2.5270      0.000210
     2.5275      0.000170
     2.5280      0.000080
     2.5285      0.000020
     2.5290      0.000140
     2.5295      0.000490
     2.5300      0.000850
     2.5305      0.001110
     2.5310      0.001150
     2.5315      0.000790
     2.5320      0.000580
     2.5325      0.000770
     2.5330      0.001210
     2.5335      0.001560
     2.5340      0.001350
     2.5345      0.001040
     2.5350      0.001350
     2.5355      0.001550
     2.5360      0.001340
     2.5365      0.000790
     2.5370      0.000740
     2.5375      0.000920
     2.5380      0.001080
     2.5385      0.001210
     2.5390      0.001410
     2.5395      0.001760
     2.5400      0.001940
     2.5405      0.002000
     2.5410      0.001930
     2.5415      0.001730
     2.5420      0.001730
     2.5425      0.001810
     2.5430      0.001650
     2.5435      0.001320
     2.5440      0.001000
     2.5445      0.000900
     2.5450      0.001050
     2.5455      0.001070
     2.5460      0.001060
     2.5465      0.001160
     2.5470      0.001460
     2.5475      0.001750
     2.5480      0.001860
     2.5485      0.001860
     2.5490      0.001890
     2.5495      0.002130
     2.5500      0.002270
     2.5505      0.002400
     2.5510      0.002310
     2.5515      0.001920
     2.5520      0.002220
     2.5525      0.002710
     2.5530      0.002940
     2.5535      0.003130
     2.5540      0.003620
     2.5545      0.003940
     2.5550      0.004640
     2.5555      0.005250
     2.5560      0.006180
     2.5565      0.008150
     2.5570      0.009370
     2.5575      0.011400
     2.5580      0.014610
     2.5585      0.018930
     2.5590      0.023910
     2.5595      0.036100
     2.5600      0.049650
     2.5605      0.075670
     2.5610      0.116640
     2.5615      0.162510
     2.5620      0.245050
     2.5625      0.384620
     2.5630      0.509710
     2.5635      0.554000
     2.5640      0.472190
     2.5645      0.340710
     2.5650      0.245120
     2.5655      0.186000
     2.5660      0.143600
     2.5665      0.119330
     2.5670      0.102510
     2.5675      0.089630
     2.5680      0.080340
     2.5685      0.076320
     2.5690      0.072980
     2.5695      0.069260
     2.5700      0.065640
     2.5705      0.062840
     2.5710      0.062630
     2.5715      0.063230
     2.5720      0.063630
     2.5725      0.065130
     2.5730      0.069380
     2.5735      0.075310
     2.5740      0.079970
     2.5745      0.085460
     2.5750      0.092560
     2.5755      0.101050
     2.5760      0.114350
     2.5765      0.131750
     2.5770      0.151290
     2.5775      0.171900
     2.5780      0.198910
     2.5785      0.236620
     2.5790      0.284690
     2.5795      0.343220
     2.5800      0.412260
     2.5805      0.509820
     2.5810      0.602810
     2.5815      0.672450
     2.5820      0.704660
     2.5825      0.688760
     2.5830      0.619190
     2.5835      0.521030
     2.5840      0.418350
     2.5845      0.345650
     2.5850      0.287040
     2.5855      0.237780
     2.5860      0.198890
     2.5865      0.169710
     2.5870      0.140700
     2.5875      0.120420
     2.5880      0.105870
     2.5885      0.094920
     2.5890      0.084540
     2.5895      0.074780
     2.5900      0.066390
     2.5905      0.059730
     2.5910      0.055000
     2.5915      0.051560
     2.5920      0.048380
     2.5925      0.044990
     2.5930      0.041550
     2.5935      0.039580
     2.5940      0.039990
     2.5945      0.039610
     2.5950      0.037760
     2.5955      0.034370
     2.5960      0.030270
     2.5965      0.027980
     2.5970      0.026850
     2.5975      0.026200
     2.5980      0.025690
     2.5985      0.024980
     2.5990      0.024210
     2.5995      0.023530
     2.6000      0.023290
     2.6005      0.022590
     2.6010      0.021880
     2.6015      0.021420
     2.6020      0.021560
     2.6025      0.022030
     2.6030      0.022350
     2.6035      0.022470
     2.6040      0.022370
     2.6045      0.022710
     2.6050      0.022870
     2.6055      0.022820
     2.6060      0.022640
     2.6065      0.023050
     2.6070      0.023410
     2.6075      0.023230
     2.6080      0.022630
     2.6085      0.022880
     2.6090      0.023980
     2.6095      0.024610
     2.6100      0.024690
     2.6105      0.024670
     2.6110      0.025060
     2.6115      0.025880
     2.6120      0.027090
     2.6125      0.028650
     2.6130      0.029480
     2.6135      0.029910
     2.6140      0.030320
     2.6145      0.031100
     2.6150      0.032460
     2.6155      0.034080
     2.6160      0.036320
     2.6165      0.039320
     2.6170      0.040410
     2.6175      0.040850
     2.6180      0.041480
     2.6185      0.042810
     2.6190      0.044850
     2.6195      0.048550
     2.6200      0.052410
     2.6205      0.055610
     2.6210      0.057190
     2.6215      0.060210
     2.6220      0.064290
     2.6225      0.069110
     2.6230      0.073770
     2.6235      0.078340
     2.6240      0.083690
     2.6245      0.090010
     2.6250      0.097030
     2.6255      0.104960
     2.6260      0.115550
     2.6265      0.128460
     2.6270      0.140770
     2.6275      0.151690
     2.6280      0.165120
     2.6285      0.182070
     2.6290      0.203050
     2.6295      0.228720
     2.6300      0.260240
     2.6305      0.294660
     2.6310      0.320550
     2.6315      0.351820
     2.6320      0.389380
     2.6325      0.432490
     2.6330      0.477650
     2.6335      0.535780
     2.6340      0.595460
     2.6345      0.652850
     2.6350      0.703520
     2.6355      0.751840
     2.6360      0.792740
     2.6365      0.824010
     2.6370      0.841980
     2.6375      0.845150
     2.6380      0.837130
     2.6385      0.818910
     2.6390      0.790340
     2.6395      0.756440
     2.6400      0.719550
     2.6405      0.680850
     2.6410      0.643090
     2.6415      0.604980
     2.6420      0.567980
     2.6425      0.533150
     2.6430      0.504510
     2.6435      0.477080
     2.6440      0.453410
     2.6445      0.435750
     2.6450      0.422060
     2.6455      0.403220
     2.6460      0.382770
     2.6465      0.364920
     2.6470      0.352450
     2.6475      0.342090
     2.6480      0.333290
     2.6485      0.325460
     2.6490      0.318730
     2.6495      0.312910
     2.6500      0.308070
     2.6505      0.304720
     2.6510      0.303990
     2.6515      0.303940
     2.6520      0.303820
     2.6525      0.301940
     2.6530      0.301530
     2.6535      0.302830
     2.6540      0.306170
     2.6545      0.313440
     2.6550      0.319810
     2.6555      0.324250
     2.6560      0.325600
     2.6565      0.331290
     2.6570      0.339380
     2.6575      0.348860
     2.6580      0.358150
     2.6585      0.370080
     2.6590      0.384900
     2.6595      0.401540
     2.6600      0.415460
     2.6605      0.429920
     2.6610      0.448300
     2.6615      0.471330
     2.6620      0.489270
     2.6625      0.505480
     2.6630      0.521730
     2.6635      0.539560
     2.6640      0.555680
     2.6645      0.576860
     2.6650      0.597760
     2.6655      0.605390
     2.6660      0.608850
     2.6665      0.614480
     2.6670      0.622040
     2.6675      0.620290
     2.6680      0.613840
     2.6685      0.604560
     2.6690      0.593270
     2.6695      0.578050
     2.6700      0.542670
     2.6705      0.500800
     2.6710      0.477410
     2.6715      0.456620
     2.6720      0.430140
     2.6725      0.397760
     2.6730      0.368430
     2.6735      0.341980
     2.6740      0.316760
     2.6745      0.291900
     2.6750      0.268680
     2.6755      0.246460
     2.6760      0.225790
     2.6765      0.208380
     2.6770      0.188520
     2.6775      0.170790
     2.6780      0.156460
     2.6785      0.145440
     2.6790      0.131460
     2.6795      0.117760
     2.6800      0.107820
     2.6805      0.098830
     2.6810      0.090160
     2.6815      0.082150
     2.6820      0.076770
     2.6825      0.070370
     2.6830      0.063830
     2.6835      0.057610
     2.6840      0.052720
     2.6845      0.048450
     2.6850      0.044740
     2.6855      0.041670
     2.6860      0.037590
     2.6865      0.033510
     2.6870      0.029790
     2.6875      0.027070
     2.6880      0.024830
     2.6885      0.022950
     2.6890      0.021300
     2.6895      0.019520
     2.6900      0.017720
     2.6905      0.015970
     2.6910      0.014680
     2.6915      0.013710
     2.6920      0.012990
     2.6925      0.012490
     2.6930      0.012120
     2.6935      0.011110
     2.6940      0.009390
     2.6945      0.008400
     2.6950      0.007880
     2.6955      0.007510
     2.6960      0.006910
     2.6965      0.006260
     2.6970      0.005720
     2.6975      0.005340
     2.6980      0.005030
     2.6985      0.004390
     2.6990      0.003780
     2.6995      0.003740
     2.7000      0.004080
     2.7005      0.004090
     2.7010      0.003600
     2.7015      0.003370
     2.7020      0.003400
     2.7025      0.003480
     2.7030      0.003170
     2.7035      0.002800
     2.7040      0.002650
     2.7045      0.002880
     2.7050      0.003070
     2.7055      0.003200
     2.7060      0.003230
     2.7065      0.003050
     2.7070      0.002720
     2.7075      0.002520
     2.7080      0.002670
     2.7085      0.002890
     2.7090      0.003050
     2.7095      0.003160
     2.7100      0.003530
     2.7105      0.003690
     2.7110      0.003520
     2.7115      0.002690
     2.7120      0.002070
     2.7125      0.001610
     2.7130      0.001320
     2.7135      0.001600
     2.7140      0.002320
     2.7145      0.003200
     2.7150      0.003380
     2.7155      0.002900
     2.7160      0.002390
     2.7165      0.002300
     2.7170      0.002460
     2.7175      0.002520
     2.7180      0.002450
     2.7185      0.002580
     2.7190      0.002870
     2.7195      0.003320
     2.7200      0.004080
     2.7205      0.004390
     2.7210      0.004200
     2.7215      0.003320
     2.7220      0.002710
     2.7225      0.002470
     2.7230      0.002600
     2.7235      0.002590
     2.7240      0.002330
     2.7245      0.002040
     2.7250      0.002240
     2.7255      0.002160
     2.7260      0.001980
     2.7265      0.001770
     2.7270      0.002210
     2.7275      0.002630
     2.7280      0.002930
     2.7285      0.002970
     2.7290      0.003010
     2.7295      0.002980
     2.7300      0.002570
     2.7305      0.002180
     2.7310      0.001920
     2.7315      0.001990
     2.7320      0.002190
     2.7325      0.002280
     2.7330      0.002200
     2.7335      0.002590
     2.7340      0.003100
     2.7345      0.003630
     2.7350      0.002950
     2.7355      0.002550
     2.7360      0.002390
     2.7365      0.002640
     2.7370      0.002900
     2.7375      0.003090
     2.7380      0.003090
     2.7385      0.002760
     2.7390      0.002670
     2.7395      0.003000
     2.7400      0.003260
     2.7405      0.003100
     2.7410      0.002560
     2.7415      0.002250
     2.7420      0.002190
     2.7425      0.002250
     2.7430      0.002150
     2.7435      0.002310
     2.7440      0.002660
     2.7445      0.003250
     2.7450      0.003370
     2.7455      0.003320
     2.7460      0.003170
     2.7465      0.003180
     2.7470      0.003120
     2.7475      0.002930
     2.7480      0.002850
     2.7485      0.002840
     2.7490      0.002840
     2.7495      0.002350
     2.7500      0.002020
     2.7505      0.001910
     2.7510      0.002430
     2.7515      0.002730
     2.7520      0.002940
     2.7525      0.003150
     2.7530      0.003330
     2.7535      0.003340
     2.7540      0.002980
     2.7545      0.003240
     2.7550      0.003800
     2.7555      0.004660
     2.7560      0.004360
     2.7565      0.003860
     2.7570      0.003260
     2.7575      0.002820
     2.7580      0.002630
     2.7585      0.002670
     2.7590      0.002880
     2.7595      0.003250
     2.7600      0.003760
     2.7605      0.004410
     2.7610      0.004720
     2.7615      0.004830
     2.7620      0.004920
     2.7625      0.005280
     2.7630      0.005700
     2.7635      0.005930
     2.7640      0.006020
     2.7645      0.006140
     2.7650      0.006370
     2.7655      0.006680
     2.7660      0.006810
     2.7665      0.006590
     2.7670      0.006560
     2.7675      0.006790
     2.7680      0.007380
     2.7685      0.007560
     2.7690      0.007860
     2.7695      0.008330
     2.7700      0.009330
     2.7705      0.009960
     2.7710      0.010180
     2.7715      0.009860
     2.7720      0.009520
     2.7725      0.009180
     2.7730      0.009290
     2.7735      0.009560
     2.7740      0.009950
     2.7745      0.010240
     2.7750      0.010450
     2.7755      0.010600
     2.7760      0.010800
     2.7765      0.011190
     2.7770      0.011700
     2.7775      0.012190
     2.7780      0.012450
     2.7785      0.012560
     2.7790      0.012560
     2.7795      0.012640
     2.7800      0.012850
     2.7805      0.013410
     2.7810      0.014020
     2.7815      0.014580
     2.7820      0.014800
     2.7825      0.015150
     2.7830      0.015660
     2.7835      0.016520
     2.7840      0.017330
     2.7845      0.018020
     2.7850      0.018310
     2.7855      0.018470
     2.7860      0.018720
     2.7865      0.019450
     2.7870      0.020620
     2.7875      0.021880
     2.7880      0.022900
     2.7885      0.023440
     2.7890      0.023920
     2.7895      0.024810
     2.7900      0.025910
     2.7905      0.027030
     2.7910      0.027950
     2.7915      0.029020
     2.7920      0.030150
     2.7925      0.031310
     2.7930      0.032440
     2.7935      0.033590
     2.7940      0.034820
     2.7945      0.036220
     2.7950      0.037670
     2.7955      0.039040
     2.7960      0.040240
     2.7965      0.041400
     2.7970      0.042710
     2.7975      0.044280
     2.7980      0.046030
     2.7985      0.048010
     2.7990      0.049880
     2.7995      0.051670
     2.8000      0.053350
     2.8005      0.055080
     2.8010      0.056930
     2.8015      0.059360
     2.8020      0.061780
     2.8025      0.064120
     2.8030      0.065630
     2.8035      0.067330
     2.8040      0.069180
     2.8045      0.070970
     2.8050      0.072870
     2.8055      0.074870
     2.8060      0.076970
     2.8065      0.078840
     2.8070      0.080510
     2.8075      0.082630
     2.8080      0.084810
     2.8085      0.087070
     2.8090      0.088710
     2.8095      0.090190
     2.8100      0.091490
     2.8105      0.093260
     2.8110      0.095140
     2.8115      0.097100
     2.8120      0.098520
     2.8125      0.099850
     2.8130      0.101170
     2.8135      0.102620
     2.8140      0.103990
     2.8145      0.105060
     2.8150      0.105940
     2.8155      0.106820
     2.8160      0.107920
     2.8165      0.109030
     2.8170      0.110110
     2.8175      0.111020
     2.8180      0.111850
     2.8185      0.112620
     2.8190      0.113420
     2.8195      0.114220
     2.8200      0.115010
     2.8205      0.115220
     2.8210      0.115460
     2.8215      0.115720
     2.8220      0.116080
     2.8225      0.116270
     2.8230      0.116230
     2.8235      0.116320
     2.8240      0.116480
     2.8245      0.116730
     2.8250      0.116970
     2.8255      0.117170
     2.8260      0.117250
     2.8265      0.117340
     2.8270      0.117480
     2.8275      0.117780
     2.8280      0.117800
     2.8285      0.117680
     2.8290      0.117510
     2.8295      0.117600
     2.8300      0.117900
     2.8305      0.118180
     2.8310      0.118290
     2.8315      0.118190
     2.8320      0.118130
     2.8325      0.118210
     2.8330      0.118540
     2.8335      0.118830
     2.8340      0.119000
     2.8345      0.118890
     2.8350      0.118760
     2.8355      0.118610
     2.8360      0.118460
     2.8365      0.118350
     2.8370      0.118290
     2.8375      0.118550
     2.8380      0.118760
     2.8385      0.118920
     2.8390      0.118920
     2.8395      0.118900
     2.8400      0.118870
     2.8405      0.118620
     2.8410      0.118360
     2.8415      0.118150
     2.8420      0.118230
     2.8425      0.118430
     2.8430      0.118800
     2.8435      0.119130
     2.8440      0.119420
     2.8445      0.119660
     2.8450      0.119960
     2.8455      0.120340
     2.8460      0.120700
     2.8465      0.121090
     2.8470      0.121500
     2.8475      0.121840
     2.8480      0.122090
     2.8485      0.122190
     2.8490      0.122650
     2.8495      0.123290
     2.8500      0.124050
     2.8505      0.124610
     2.8510      0.125030
     2.8515      0.125730
     2.8520      0.126500
     2.8525      0.127350
     2.8530      0.128000
     2.8535      0.128640
     2.8540      0.129290
     2.8545      0.130000
     2.8550      0.130740
     2.8555      0.131560
     2.8560      0.132560
     2.8565      0.133690
     2.8570      0.134620
     2.8575      0.135460
     2.8580      0.136180
     2.8585      0.137610
     2.8590      0.139120
     2.8595      0.140580
     2.8600      0.141430
     2.8605      0.142030
     2.8610      0.142740
     2.8615      0.143680
     2.8620      0.144820
     2.8625      0.146450
     2.8630      0.148070
     2.8635      0.149660
     2.8640      0.150940
     2.8645      0.152210
     2.8650      0.153730
     2.8655      0.155440
     2.8660      0.157220
     2.8665      0.158810
     2.8670      0.160290
     2.8675      0.161640
     2.8680      0.163250
     2.8685      0.165030
     2.8690      0.167140
     2.8695      0.169380
     2.8700      0.171680
     2.8705      0.174030
     2.8710      0.176280
     2.8715      0.178450
     2.8720      0.180610
     2.8725      0.182680
     2.8730      0.184550
     2.8735      0.186140
     2.8740      0.187820
     2.8745      0.190350
     2.8750      0.193230
     2.8755      0.196380
     2.8760      0.199030
     2.8765      0.201740
     2.8770      0.204540
     2.8775      0.207530
     2.8780      0.210480
     2.8785      0.213100
     2.8790      0.215650
     2.8795      0.218160
     2.8800      0.221270
     2.8805      0.224510
     2.8810      0.227940
     2.8815      0.231310
     2.8820      0.234710
     2.8825      0.238260
     2.8830      0.241740
     2.8835      0.245160
     2.8840      0.248480
     2.8845      0.251990
     2.8850      0.255770
     2.8855      0.259530
     2.8860      0.263240
     2.8865      0.266700
     2.8870      0.270100
     2.8875      0.273440
     2.8880      0.276980
     2.8885      0.280800
     2.8890      0.285100
     2.8895      0.289660
     2.8900      0.294220
     2.8905      0.298240
     2.8910      0.301940
     2.8915      0.305350
     2.8920      0.309340
     2.8925      0.313670
     2.8930      0.318670
     2.8935      0.323330
     2.8940      0.327810
     2.8945      0.331870
     2.8950      0.336150
     2.8955      0.340710
     2.8960      0.345170
     2.8965      0.349530
     2.8970      0.353610
     2.8975      0.357920
     2.8980      0.362370
     2.8985      0.367170
     2.8990      0.371940
     2.8995      0.376670
     2.9000      0.381070
     2.9005      0.385330
     2.9010      0.389320
     2.9015      0.393410
     2.9020      0.397610
     2.9025      0.401460
     2.9030      0.405250
     2.9035      0.409020
     2.9040      0.413180
     2.9045      0.417580
     2.9050      0.421660
     2.9055      0.425730
     2.9060      0.429790
     2.9065      0.433920
     2.9070      0.438020
     2.9075      0.441720
     2.9080      0.445560
     2.9085      0.449550
     2.9090      0.453270
     2.9095      0.456760
     2.9100      0.459580
     2.9105      0.462440
     2.9110      0.465330
     2.9115      0.468330
     2.9120      0.471320
     2.9125      0.474280
     2.9130      0.477390
     2.9135      0.480560
     2.9140      0.483470
     2.9145      0.486080
     2.9150      0.488240
     2.9155      0.490540
     2.9160      0.492940
     2.9165      0.495860
     2.9170      0.498520
     2.9175      0.500910
     2.9180      0.502710
     2.9185      0.504450
     2.9190      0.506390
     2.9195      0.508420
     2.9200      0.510520
     2.9205      0.512280
     2.9210      0.513940
     2.9215      0.515370
     2.9220      0.516740
     2.9225      0.518090
     2.9230      0.519650
     2.9235      0.521240
     2.9240      0.522840
     2.9245      0.524200
     2.9250      0.525430
     2.9255      0.526360
     2.9260      0.527350
     2.9265      0.528420
     2.9270      0.529710
     2.9275      0.531070
     2.9280      0.532110
     2.9285      0.533100
     2.9290      0.533990
     2.9295      0.535060
     2.9300      0.536130
     2.9305      0.536840
     2.9310      0.537430
     2.9315      0.537860
     2.9320      0.538500
     2.9325      0.539220
     2.9330      0.540070
     2.9335      0.540810
     2.9340      0.541410
     2.9345      0.541880
     2.9350      0.542320
     2.9355      0.542870
     2.9360      0.543360
     2.9365      0.543780
     2.9370      0.544110
     2.9375      0.544470
     2.9380      0.545110
     2.9385      0.545690
     2.9390      0.546210
     2.9395      0.546340
     2.9400      0.546420
     2.9405      0.546610
     2.9410      0.546970
     2.9415      0.547500
     2.9420      0.548490
     2.9425      0.549520
     2.9430      0.550280
     2.9435      0.550580
     2.9440      0.550400
     2.9445      0.550760
     2.9450      0.551250
     2.9455      0.551830
     2.9460      0.552150
     2.9465      0.552210
     2.9470      0.552650
     2.9475      0.553170
     2.9480      0.553560
     2.9485      0.553950
     2.9490      0.554320
     2.9495      0.554830
     2.9500      0.555330
     2.9505      0.555520
     2.9510      0.555690
     2.9515      0.555850
     2.9520      0.556220
     2.9525      0.556700
     2.9530      0.557610
     2.9535      0.558440
     2.9540      0.559110
     2.9545      0.559460
     2.9550      0.559660
     2.9555      0.559920
     2.9560      0.560170
     2.9565      0.560400
     2.9570      0.560930
     2.9575      0.561630
     2.9580      0.562330
     2.9585      0.562920
     2.9590      0.563230
     2.9595      0.563860
     2.9600      0.564730
     2.9605      0.565360
     2.9610      0.565850
     2.9615      0.565840
     2.9620      0.566060
     2.9625      0.566500
     2.9630      0.567150
     2.9635      0.567820
     2.9640      0.568270
     2.9645      0.568660
     2.9650      0.568980
     2.9655      0.569540
     2.9660      0.570200
     2.9665      0.570950
     2.9670      0.571610
     2.9675      0.572090
     2.9680      0.572500
     2.9685      0.572860
     2.9690      0.573260
     2.9695      0.573720
     2.9700      0.574300
     2.9705      0.574620
     2.9710      0.574710
     2.9715      0.574640
     2.9720      0.574650
     2.9725      0.575390
     2.9730      0.576180
     2.9735      0.577030
     2.9740      0.577720
     2.9745      0.578350
     2.9750      0.578910
     2.9755      0.579380
     2.9760      0.579640
     2.9765      0.579870
     2.9770      0.580070
     2.9775      0.580300
     2.9780      0.580590
     2.9785      0.581110
     2.9790      0.581780
     2.9795      0.582600
     2.9800      0.583170
     2.9805      0.583650
     2.9810      0.583880
     2.9815      0.584150
     2.9820      0.584510
     2.9825      0.584910
     2.9830      0.585360
     2.9835      0.585860
     2.9840      0.586360
     2.9845      0.586800
     2.9850      0.587210
     2.9855      0.587590
     2.9860      0.588110
     2.9865      0.588680
     2.9870      0.589290
     2.9875      0.589830
     2.9880      0.590250
     2.9885      0.590590
     2.9890      0.590890
     2.9895      0.591140
     2.9900      0.591350
     2.9905      0.591310
     2.9910      0.591190
     2.9915      0.590930
     2.9920      0.590980
     2.9925      0.591180
     2.9930      0.591700
     2.9935      0.592170
     2.9940      0.592410
     2.9945      0.592540
     2.9950      0.592570
     2.9955      0.592480
     2.9960      0.592340
     2.9965      0.592100
     2.9970      0.591880
     2.9975      0.591740
     2.9980      0.591700
     2.9985      0.591730
     2.9990      0.592170
     2.9995      0.592660
     3.0000      0.592850
     3.0005      0.592750
     3.0010      0.592160
     3.0015      0.591880
     3.0020      0.591750
     3.0025      0.591750
     3.0030      0.591690
     3.0035      0.591300
     3.0040      0.591020
     3.0045      0.590890
     3.0050      0.590740
     3.0055      0.590580
     3.0060      0.590160
     3.0065      0.589740
     3.0070      0.589420
     3.0075      0.589080
     3.0080      0.588730
     3.0085      0.588050
     3.0090      0.587240
     3.0095      0.586370
     3.0100      0.585610
     3.0105      0.585260
     3.0110      0.584960
     3.0115      0.584720
     3.0120      0.584290
     3.0125      0.583790
     3.0130      0.583250
     3.0135      0.582740
     3.0140      0.582390
     3.0145      0.581880
     3.0150      0.581210
     3.0155      0.580280
     3.0160      0.579250
     3.0165      0.578430
     3.0170      0.577590
     3.0175      0.576660
     3.0180      0.575680
     3.0185      0.574640
     3.0190      0.573690
     3.0195      0.572760
     3.0200      0.572090
     3.0205      0.571500
     3.0210      0.571240
     3.0215      0.570680
     3.0220      0.569690
     3.0225      0.568390
     3.0230      0.566940
     3.0235      0.566190
     3.0240      0.565560
     3.0245      0.565160
     3.0250      0.564530
     3.0255      0.563480
     3.0260      0.562200
     3.0265      0.560760
     3.0270      0.559640
     3.0275      0.558600
     3.0280      0.557880
     3.0285      0.557220
     3.0290      0.556690
     3.0295      0.556100
     3.0300      0.555440
     3.0305      0.554590
     3.0310      0.553690
     3.0315      0.553210
     3.0320      0.552670
     3.0325      0.551860
     3.0330      0.550820
     3.0335      0.549490
     3.0340      0.548620
     3.0345      0.548000
     3.0350      0.547650
     3.0355      0.547320
     3.0360      0.546790
     3.0365      0.546340
     3.0370      0.546070
     3.0375      0.545820
     3.0380      0.545590
     3.0385      0.544750
     3.0390      0.543730
     3.0395      0.542510
     3.0400      0.541520
     3.0405      0.541340
     3.0410      0.541240
     3.0415      0.541230
     3.0420      0.540800
     3.0425      0.540120
     3.0430      0.539650
     3.0435      0.539250
     3.0440      0.539240
     3.0445      0.539160
     3.0450      0.538940
     3.0455      0.538700
     3.0460      0.538450
     3.0465      0.538260
     3.0470      0.538110
     3.0475      0.538130
     3.0480      0.538200
     3.0485      0.538490
     3.0490      0.538650
     3.0495      0.538520
     3.0500      0.538470
     3.0505      0.538480
     3.0510      0.538900
     3.0515      0.539450
     3.0520      0.539530
     3.0525      0.539600
     3.0530      0.539740
     3.0535      0.540110
     3.0540      0.540900
     3.0545      0.541410
     3.0550      0.541710
     3.0555      0.541750
     3.0560      0.541710
     3.0565      0.542290
     3.0570      0.542930
     3.0575      0.543840
     3.0580      0.544730
     3.0585      0.545600
     3.0590      0.546470
     3.0595      0.547330
     3.0600      0.548030
     3.0605      0.548660
     3.0610      0.549260
     3.0615      0.549850
     3.0620      0.550520
     3.0625      0.551230
     3.0630      0.552020
     3.0635      0.552790
     3.0640      0.553550
     3.0645      0.554250
     3.0650      0.554940
     3.0655      0.555670
     3.0660      0.556380
     3.0665      0.556730
     3.0670      0.557250
     3.0675      0.558230
     3.0680      0.559680
     3.0685      0.561700
     3.0690      0.563220
     3.0695      0.564450
     3.0700      0.565270
     3.0705      0.565990
     3.0710      0.567220
     3.0715      0.568450
     3.0720      0.569660
     3.0725      0.570760
     3.0730      0.571670
     3.0735      0.572420
     3.0740      0.573040
     3.0745      0.573690
     3.0750      0.574350
     3.0755      0.575450
     3.0760      0.576620
     3.0765      0.577970
     3.0770      0.579290
     3.0775      0.580490
     3.0780      0.581610
     3.0785      0.582600
     3.0790      0.583460
     3.0795      0.584220
     3.0800      0.585100
     3.0805      0.586010
     3.0810      0.587010
     3.0815      0.587970
     3.0820      0.588440
     3.0825      0.588860
     3.0830      0.589110
     3.0835      0.589680
     3.0840      0.590660
     3.0845      0.591870
     3.0850      0.593220
     3.0855      0.594080
     3.0860      0.594780
     3.0865      0.595290
     3.0870      0.595780
     3.0875      0.596190
     3.0880      0.596510
     3.0885      0.596520
     3.0890      0.596650
     3.0895      0.596950
     3.0900      0.597120
     3.0905      0.597200
     3.0910      0.596900
     3.0915      0.596470
     3.0920      0.596890
     3.0925      0.597420
     3.0930      0.598280
     3.0935      0.598920
     3.0940      0.598720
     3.0945      0.598430
     3.0950      0.597980
     3.0955      0.597720
     3.0960      0.597660
     3.0965      0.597210
     3.0970      0.596560
     3.0975      0.595290
     3.0980      0.593870
     3.0985      0.593050
     3.0990      0.592290
     3.0995      0.591850
     3.1000      0.591250
     3.1005      0.590170
     3.1010      0.589210
     3.1015      0.588440
     3.1020      0.587800
     3.1025      0.587270
     3.1030      0.586380
     3.1035      0.585340
     3.1040      0.584400
     3.1045      0.583480
     3.1050      0.582450
     3.1055      0.581360
     3.1060      0.579920
     3.1065      0.578530
     3.1070      0.577300
     3.1075      0.576110
     3.1080      0.574950
     3.1085      0.573520
     3.1090      0.571840
     3.1095      0.569960
     3.1100      0.567990
     3.1105      0.566420
     3.1110      0.564950
     3.1115      0.563640
     3.1120      0.562320
     3.1125      0.560470
     3.1130      0.558620
     3.1135      0.556810
     3.1140      0.555050
     3.1145      0.553420
     3.1150      0.551570
     3.1155      0.549460
     3.1160      0.547310
     3.1165      0.545110
     3.1170      0.543100
     3.1175      0.541160
     3.1180      0.539180
     3.1185      0.537180
     3.1190      0.535440
     3.1195      0.533730
     3.1200      0.532170
     3.1205      0.530530
     3.1210      0.528530
     3.1215      0.526480
     3.1220      0.524300
     3.1225      0.522250
     3.1230      0.520340
     3.1235      0.518590
     3.1240      0.516950
     3.1245      0.515410
     3.1250      0.513920
     3.1255      0.512310
     3.1260      0.510660
     3.1265      0.508630
     3.1270      0.506560
     3.1275      0.504490
     3.1280      0.502460
     3.1285      0.500660
     3.1290      0.498940
     3.1295      0.497420
     3.1300      0.496070
     3.1305      0.495000
     3.1310      0.493840
     3.1315      0.492580
     3.1320      0.490920
     3.1325      0.489000
     3.1330      0.487240
     3.1335      0.485560
     3.1340      0.484320
     3.1345      0.483190
     3.1350      0.482160
     3.1355      0.481150
     3.1360      0.479980
     3.1365      0.478770
     3.1370      0.477240
     3.1375      0.475690
     3.1380      0.474080
     3.1385      0.472610
     3.1390      0.471400
     3.1395      0.470200
     3.1400      0.469010
     3.1405      0.467840
     3.1410      0.466680
     3.1415      0.465930
     3.1420      0.465440
     3.1425      0.464950
     3.1430      0.464450
     3.1435      0.463690
     3.1440      0.462860
     3.1445      0.462510
     3.1450      0.462210
     3.1455      0.462060
     3.1460      0.461840
     3.1465      0.460800
     3.1470      0.459680
     3.1475      0.458150
     3.1480      0.456800
     3.1485      0.455930
     3.1490      0.455280
     3.1495      0.455050
     3.1500      0.454820
     3.1505      0.454590
     3.1510      0.454380
     3.1515      0.454190
     3.1520      0.453850
     3.1525      0.453420
     3.1530      0.453060
     3.1535      0.452740
     3.1540      0.452830
     3.1545      0.453050
     3.1550      0.452800
     3.1555      0.452460
     3.1560      0.451840
     3.1565      0.451200
     3.1570      0.451120
     3.1575      0.451040
     3.1580      0.450910
     3.1585      0.450790
     3.1590      0.450720
     3.1595      0.450730
     3.1600      0.450990
     3.1605      0.451220
     3.1610      0.451420
     3.1615      0.451710
     3.1620      0.452130
     3.1625      0.452600
     3.1630      0.453120
     3.1635      0.453230
     3.1640      0.452980
     3.1645      0.452620
     3.1650      0.452180
     3.1655      0.452230
     3.1660      0.452510
     3.1665      0.452950
     3.1670      0.453450
     3.1675      0.453990
     3.1680      0.454540
     3.1685      0.455060
     3.1690      0.455570
     3.1695      0.455720
     3.1700      0.455840
     3.1705      0.456180
     3.1710      0.456530
     3.1715      0.456880
     3.1720      0.457190
     3.1725      0.457230
     3.1730      0.457300
     3.1735      0.457520
     3.1740      0.457810
     3.1745      0.458300
     3.1750      0.458900
     3.1755      0.459780
     3.1760      0.460560
     3.1765      0.461180
     3.1770      0.461710
     3.1775      0.462130
     3.1780      0.462770
     3.1785      0.463700
     3.1790      0.464480
     3.1795      0.465120
     3.1800      0.465730
     3.1805      0.466330
     3.1810      0.467130
     3.1815      0.468080
     3.1820      0.468890
     3.1825      0.469620
     3.1830      0.470410
     3.1835      0.471230
     3.1840      0.471920
     3.1845      0.472570
     3.1850      0.473010
     3.1855      0.473400
     3.1860      0.474140
     3.1865      0.474950
     3.1870      0.475910
     3.1875      0.476900
     3.1880      0.477680
     3.1885      0.478450
     3.1890      0.478970
     3.1895      0.479490
     3.1900      0.480160
     3.1905      0.480840
     3.1910      0.481870
     3.1915      0.482890
     3.1920      0.483790
     3.1925      0.484660
     3.1930      0.485350
     3.1935      0.486050
     3.1940      0.486760
     3.1945      0.487480
     3.1950      0.488210
     3.1955      0.489000
     3.1960      0.489980
     3.1965      0.491090
     3.1970      0.492620
     3.1975      0.494190
     3.1980      0.495860
     3.1985      0.497350
     3.1990      0.498330
     3.1995      0.499040
     3.2000      0.499150
     3.2005      0.499260
     3.2010      0.499360
     3.2015      0.499790
     3.2020      0.500810
     3.2025      0.502030
     3.2030      0.503590
     3.2035      0.505010
     3.2040      0.506230
     3.2045      0.507330
     3.2050      0.508260
     3.2055      0.509170
     3.2060      0.510060
     3.2065      0.510990
     3.2070      0.511970
     3.2075      0.513150
     3.2080      0.514560
     3.2085      0.516000
     3.2090      0.517490
     3.2095      0.518540
     3.2100      0.519160
     3.2105      0.519690
     3.2110      0.520140
     3.2115      0.521040
     3.2120      0.522360
     3.2125      0.523670
     3.2130      0.525000
     3.2135      0.526140
     3.2140      0.527130
     3.2145      0.528310
     3.2150      0.529640
     3.2155      0.530940
     3.2160      0.532210
     3.2165      0.533320
     3.2170      0.534290
     3.2175      0.535340
     3.2180      0.536450
     3.2185      0.537480
     3.2190      0.538440
     3.2195      0.539360
     3.2200      0.540240
     3.2205      0.541430
     3.2210      0.542840
     3.2215      0.544180
     3.2220      0.545480
     3.2225      0.546340
     3.2230      0.546880
     3.2235      0.547210
     3.2240      0.547400
     3.2245      0.547800
     3.2250      0.548350
     3.2255      0.549240
     3.2260      0.550380
     3.2265      0.551570
     3.2270      0.552820
     3.2275      0.553910
     3.2280      0.554880
     3.2285      0.555720
     3.2290      0.556460
     3.2295      0.557130
     3.2300      0.557730
     3.2305      0.558180
     3.2310      0.558480
     3.2315      0.558610
     3.2320      0.558590
     3.2325      0.558540
     3.2330      0.558450
     3.2335      0.558330
     3.2340      0.558170
     3.2345      0.558170
     3.2350      0.558350
     3.2355      0.558660
     3.2360      0.559150
     3.2365      0.559400
     3.2370      0.559320
     3.2375      0.559110
     3.2380      0.558690
     3.2385      0.558410
     3.2390      0.558380
     3.2395      0.558330
     3.2400      0.558280
     3.2405      0.558000
     3.2410      0.557260
     3.2415      0.556510
     3.2420      0.555720
     3.2425      0.555010
     3.2430      0.554480
     3.2435      0.553860
     3.2440      0.552980
     3.2445      0.552050
     3.2450      0.550930
     3.2455      0.549790
     3.2460      0.548540
     3.2465      0.547290
     3.2470      0.546090
     3.2475      0.544910
     3.2480      0.543860
     3.2485      0.542770
     3.2490      0.541310
     3.2495      0.539850
     3.2500      0.538220
     3.2505      0.536590
     3.2510      0.534970
     3.2515      0.533350
     3.2520      0.531670
     3.2525      0.529980
     3.2530      0.528350
     3.2535      0.526710
     3.2540      0.524830
     3.2545      0.522920
     3.2550      0.520860
     3.2555      0.518780
     3.2560      0.516630
     3.2565      0.514460
     3.2570      0.511970
     3.2575      0.509380
     3.2580      0.506790
     3.2585      0.504210
     3.2590      0.501720
     3.2595      0.499280
     3.2600      0.496740
     3.2605      0.494140
     3.2610      0.491630
     3.2615      0.489180
     3.2620      0.486750
     3.2625      0.484320
     3.2630      0.481600
     3.2635      0.478540
     3.2640      0.475420
     3.2645      0.472220
     3.2650      0.469240
     3.2655      0.466630
     3.2660      0.464020
     3.2665      0.461400
     3.2670      0.458670
     3.2675      0.455580
     3.2680      0.452530
     3.2685      0.449590
     3.2690      0.446690
     3.2695      0.444060
     3.2700      0.441430
     3.2705      0.438760
     3.2710      0.436090
     3.2715      0.433030
     3.2720      0.429970
     3.2725      0.426480
     3.2730      0.422950
     3.2735      0.419710
     3.2740      0.416510
     3.2745      0.413840
     3.2750      0.411310
     3.2755      0.408590
     3.2760      0.405810
     3.2765      0.402880
     3.2770      0.399880
     3.2775      0.397220
     3.2780      0.394780
     3.2785      0.392270
     3.2790      0.389690
     3.2795      0.386870
     3.2800      0.383750
     3.2805      0.380830
     3.2810      0.378220
     3.2815      0.375730
     3.2820      0.373540
     3.2825      0.371260
     3.2830      0.368630
     3.2835      0.365970
     3.2840      0.363190
     3.2845      0.360450
     3.2850      0.358260
     3.2855      0.356060
     3.2860      0.353960
     3.2865      0.351850
     3.2870      0.349190
     3.2875      0.346470
     3.2880      0.343890
     3.2885      0.341340
     3.2890      0.339170
     3.2895      0.337140
     3.2900      0.335100
     3.2905      0.333050
     3.2910      0.331120
     3.2915      0.329290
     3.2920      0.327500
     3.2925      0.325760
     3.2930      0.323910
     3.2935      0.321880
     3.2940      0.319920
     3.2945      0.318130
     3.2950      0.316360
     3.2955      0.314670
     3.2960      0.312960
     3.2965      0.311000
     3.2970      0.309030
     3.2975      0.307490
     3.2980      0.305960
     3.2985      0.304650
     3.2990      0.303360
     3.2995      0.301770
     3.3000      0.300100
     3.3005      0.298530
     3.3010      0.297010
     3.3015      0.295680
     3.3020      0.294490
     3.3025      0.293350
     3.3030      0.292270
     3.3035      0.291300
     3.3040      0.290480
     3.3045      0.289630
     3.3050      0.288700
     3.3055      0.287680
     3.3060      0.286220
     3.3065      0.284760
     3.3070      0.283340
     3.3075      0.281920
     3.3080      0.281070
     3.3085      0.280250
     3.3090      0.279710
     3.3095      0.279210
     3.3100      0.278730
     3.3105      0.278250
     3.3110      0.277610
     3.3115      0.276870
     3.3120      0.276040
     3.3125      0.275120
     3.3130      0.274380
     3.3135      0.273930
     3.3140      0.273520
     3.3145      0.273210
     3.3150      0.272820
     3.3155      0.272040
     3.3160      0.271280
     3.3165      0.270850
     3.3170      0.270430
     3.3175      0.270930
     3.3180      0.271530
     3.3185      0.271950
     3.3190      0.272320
     3.3195      0.271920
     3.3200      0.271110
     3.3205      0.270330
     3.3210      0.269570
     3.3215      0.269080
     3.3220      0.268970
     3.3225      0.268890
     3.3230      0.268880
     3.3235      0.268890
     3.3240      0.269000
     3.3245      0.269100
     3.3250      0.269020
     3.3255      0.268930
     3.3260      0.268770
     3.3265      0.268600
     3.3270      0.268840
     3.3275      0.269220
     3.3280      0.269680
     3.3285      0.270180
     3.3290      0.270620
     3.3295      0.271020
     3.3300      0.271490
     3.3305      0.272100
     3.3310      0.272720
     3.3315      0.273350
     3.3320      0.273970
     3.3325      0.274420
     3.3330      0.274880
     3.3335      0.275590
     3.3340      0.276320
     3.3345      0.277320
     3.3350      0.278400
     3.3355      0.279220
     3.3360      0.279900
     3.3365      0.280570
     3.3370      0.281240
     3.3375      0.282070
     3.3380      0.283220
     3.3385      0.284330
     3.3390      0.285260
     3.3395      0.286190
     3.3400      0.287020
     3.3405      0.287840
     3.3410      0.288800
     3.3415      0.289770
     3.3420      0.290710
     3.3425      0.291630
     3.3430      0.292670
     3.3435      0.293790
     3.3440      0.295090
     3.3445      0.296610
     3.3450      0.298140
     3.3455      0.299700
     3.3460      0.301230
     3.3465      0.302470
     3.3470      0.303720
     3.3475      0.305280
     3.3480      0.306860
     3.3485      0.308700
     3.3490      0.310610
     3.3495      0.312220
     3.3500      0.313660
     3.3505      0.315120
     3.3510      0.316620
     3.3515      0.318190
     3.3520      0.319920
     3.3525      0.321640
     3.3530      0.323300
     3.3535      0.324960
     3.3540      0.326740
     3.3545      0.328520
     3.3550      0.330340
     3.3555      0.332180
     3.3560      0.334290
     3.3565      0.336560
     3.3570      0.338940
     3.3575      0.341440
     3.3580      0.343860
     3.3585      0.346060
     3.3590      0.348250
     3.3595      0.350460
     3.3600      0.352680
     3.3605      0.354700
     3.3610      0.356700
     3.3615      0.358640
     3.3620      0.360560
     3.3625      0.362700
     3.3630      0.365000
     3.3635      0.367270
     3.3640      0.369490
     3.3645      0.371730
     3.3650      0.374020
     3.3655      0.376330
     3.3660      0.379140
     3.3665      0.381950
     3.3670      0.384960
     3.3675      0.388030
     3.3680      0.390900
     3.3685      0.393670
     3.3690      0.396200
     3.3695      0.398440
     3.3700      0.400690
     3.3705      0.402980
     3.3710      0.405300
     3.3715      0.408030
     3.3720      0.410770
     3.3725      0.413790
     3.3730      0.416850
     3.3735      0.419960
     3.3740      0.423100
     3.3745      0.426060
     3.3750      0.428850
     3.3755      0.431530
     3.3760      0.433950
     3.3765      0.436400
     3.3770      0.439120
     3.3775      0.441850
     3.3780      0.445100
     3.3785      0.448410
     3.3790      0.451510
     3.3795      0.454510
     3.3800      0.457220
     3.3805      0.459640
     3.3810      0.462150
     3.3815      0.464890
     3.3820      0.467650
     3.3825      0.470580
     3.3830      0.473500
     3.3835      0.476190
     3.3840      0.478840
     3.3845      0.481620
     3.3850      0.484470
     3.3855      0.487370
     3.3860      0.490330
     3.3865      0.493210
     3.3870      0.495840
     3.3875      0.498460
     3.3880      0.500640
     3.3885      0.502820
     3.3890      0.504970
     3.3895      0.507120
     3.3900      0.509840
     3.3905      0.512940
     3.3910      0.516040
     3.3915      0.519120
     3.3920      0.522010
     3.3925      0.523970
     3.3930      0.525920
     3.3935      0.527950
     3.3940      0.529980
     3.3945      0.532150
     3.3950      0.534380
     3.3955      0.536490
     3.3960      0.538510
     3.3965      0.540600
     3.3970      0.542890
     3.3975      0.545180
     3.3980      0.547460
     3.3985      0.549750
     3.3990      0.551890
     3.3995      0.554000
     3.4000      0.555980
     3.4005      0.557870
     3.4010      0.559560
     3.4015      0.560930
     3.4020      0.562270
     3.4025      0.563500
     3.4030      0.564730
     3.4035      0.566270
     3.4040      0.567840
     3.4045      0.569480
     3.4050      0.571170
     3.4055      0.572730
     3.4060      0.574130
     3.4065      0.575470
     3.4070      0.576510
     3.4075      0.577560
     3.4080      0.578300
     3.4085      0.579020
     3.4090      0.579960
     3.4095      0.580970
     3.4100      0.582190
     3.4105      0.583650
     3.4110      0.584990
     3.4115      0.585940
     3.4120      0.586880
     3.4125      0.587310
     3.4130      0.587750
     3.4135      0.588140
     3.4140      0.588520
     3.4145      0.588830
     3.4150      0.589090
     3.4155      0.589350
     3.4160      0.589640
     3.4165      0.589930
     3.4170      0.590260
     3.4175      0.590580
     3.4180      0.590940
     3.4185      0.591300
     3.4190      0.591650
     3.4195      0.591970
     3.4200      0.592280
     3.4205      0.592540
     3.4210      0.592800
     3.4215      0.593100
     3.4220      0.593410
     3.4225      0.593570
     3.4230      0.593680
     3.4235      0.593780
     3.4240      0.593890
     3.4245      0.593970
     3.4250      0.593910
     3.4255      0.593850
     3.4260      0.593540
     3.4265      0.593210
     3.4270      0.593130
     3.4275      0.593180
     3.4280      0.593290
     3.4285      0.593500
     3.4290      0.593710
     3.4295      0.594020
     3.4300      0.594320
     3.4305      0.594540
     3.4310      0.594760
     3.4315      0.594600
     3.4320      0.594200
     3.4325      0.593780
     3.4330      0.593350
     3.4335      0.592940
     3.4340      0.592940
     3.4345      0.592940
     3.4350      0.593290
     3.4355      0.593740
     3.4360      0.594220
     3.4365      0.594730
     3.4370      0.595150
     3.4375      0.595270
     3.4380      0.595390
     3.4385      0.595270
     3.4390      0.595140
     3.4395      0.594880
     3.4400      0.594560
     3.4405      0.594380
     3.4410      0.594420
     3.4415      0.594490
     3.4420      0.594770
     3.4425      0.595040
     3.4430      0.595040
     3.4435      0.594970
     3.4440      0.594900
     3.4445      0.594810
     3.4450      0.594710
     3.4455      0.594530
     3.4460      0.594350
     3.4465      0.594470
     3.4470      0.594610
     3.4475      0.595020
     3.4480      0.595560
     3.4485      0.595880
     3.4490      0.595820
     3.4495      0.595760
     3.4500      0.595740
     3.4505      0.595710
     3.4510      0.596340
     3.4515      0.597140
     3.4520      0.597810
     3.4525      0.598340
     3.4530      0.598770
     3.4535      0.598700
     3.4540      0.598640
     3.4545      0.598970
     3.4550      0.599350
     3.4555      0.599830
     3.4560      0.600370
     3.4565      0.600780
     3.4570      0.600820
     3.4575      0.600860
     3.4580      0.601160
     3.4585      0.601460
     3.4590      0.602000
     3.4595      0.602660
     3.4600      0.603230
     3.4605      0.603640
     3.4610      0.604040
     3.4615      0.604500
     3.4620      0.604960
     3.4625      0.605550
     3.4630      0.606190
     3.4635      0.606670
     3.4640      0.606940
     3.4645      0.607200
     3.4650      0.607390
     3.4655      0.607570
     3.4660      0.607700
     3.4665      0.607820
     3.4670      0.607700
     3.4675      0.607320
     3.4680      0.607060
     3.4685      0.607360
     3.4690      0.607660
     3.4695      0.608420
     3.4700      0.609270
     3.4705      0.609760
     3.4710      0.609910
     3.4715      0.610040
     3.4720      0.610020
     3.4725      0.610010
     3.4730      0.610170
     3.4735      0.610360
     3.4740      0.610460
     3.4745      0.610490
     3.4750      0.610450
     3.4755      0.610160
     3.4760      0.609870
     3.4765      0.610130
     3.4770      0.610450
     3.4775      0.610970
     3.4780      0.611660
     3.4785      0.612100
     3.4790      0.611680
     3.4795      0.611270
     3.4800      0.611320
     3.4805      0.611440
     3.4810      0.611930
     3.4815      0.612740
     3.4820      0.613210
     3.4825      0.612460
     3.4830      0.611700
     3.4835      0.610680
     3.4840      0.609610
     3.4845      0.609170
     3.4850      0.609270
     3.4855      0.609420
     3.4860      0.609740
     3.4865      0.610060
     3.4870      0.609970
     3.4875      0.609800
     3.4880      0.609360
     3.4885      0.608660
     3.4890      0.607970
     3.4895      0.607370
     3.4900      0.606760
     3.4905      0.606560
     3.4910      0.606450
     3.4915      0.606250
     3.4920      0.605940
     3.4925      0.605650
     3.4930      0.605470
     3.4935      0.605290
     3.4940      0.605480
     3.4945      0.605780
     3.4950      0.605890
     3.4955      0.605700
     3.4960      0.605480
     3.4965      0.604560
     3.4970      0.603630
     3.4975      0.602620
     3.4980      0.601580
     3.4985      0.600720
     3.4990      0.600260
     3.4995      0.599790
     3.5000      0.599450
     3.5005      0.599110
     3.5010      0.598380
     3.5015      0.597380
     3.5020      0.596360
     3.5025      0.595280
     3.5030      0.594200
     3.5035      0.593840
     3.5040      0.593600
     3.5045      0.593770
     3.5050      0.594350
     3.5055      0.594830
     3.5060      0.594540
     3.5065      0.594240
     3.5070      0.593160
     3.5075      0.591820
     3.5080      0.590590
     3.5085      0.589540
     3.5090      0.588490
     3.5095      0.587560
     3.5100      0.586640
     3.5105      0.585900
     3.5110      0.585290
     3.5115      0.584740
     3.5120      0.584420
     3.5125      0.584100
     3.5130      0.584300
     3.5135      0.584580
     3.5140      0.585140
     3.5145      0.585980
     3.5150      0.586600
     3.5155      0.585540
     3.5160      0.584480
     3.5165      0.583170
     3.5170      0.581770
     3.5175      0.581300
     3.5180      0.582580
     3.5185      0.583860
     3.5190      0.584810
     3.5195      0.585750
     3.5200      0.585670
     3.5205      0.584800
     3.5210      0.583980
     3.5215      0.583390
     3.5220      0.582790
     3.5225      0.582210
     3.5230      0.581640
     3.5235      0.581050
     3.5240      0.580420
     3.5245      0.579780
     3.5250      0.579630
     3.5255      0.579480
     3.5260      0.579640
     3.5265      0.580000
     3.5270      0.580410
     3.5275      0.581010
     3.5280      0.581600
     3.5285      0.581890
     3.5290      0.582100
     3.5295      0.582200
     3.5300      0.582120
     3.5305      0.582040
     3.5310      0.581940
     3.5315      0.581840
     3.5320      0.582510
     3.5325      0.583690
     3.5330      0.584960
     3.5335      0.586570
     3.5340      0.588180
     3.5345      0.588490
     3.5350      0.588420
     3.5355      0.588390
     3.5360      0.588420
     3.5365      0.588460
     3.5370      0.589240
     3.5375      0.590060
     3.5380      0.591260
     3.5385      0.592780
     3.5390      0.594400
     3.5395      0.596650
     3.5400      0.598900
     3.5405      0.600140
     3.5410      0.600990
     3.5415      0.601450
     3.5420      0.601000
     3.5425      0.600550
     3.5430      0.600930
     3.5435      0.601410
     3.5440      0.602430
     3.5445      0.604090
     3.5450      0.605730
     3.5455      0.606870
     3.5460      0.608010
     3.5465      0.608980
     3.5470      0.609850
     3.5475      0.610760
     3.5480      0.611850
     3.5485      0.612950
     3.5490      0.613830
     3.5495      0.614630
     3.5500      0.615840
     3.5505      0.617920
     3.5510      0.619990
     3.5515      0.622490
     3.5520      0.625040
     3.5525      0.626680
     3.5530      0.627240
     3.5535      0.627800
     3.5540      0.628330
     3.5545      0.628860
     3.5550      0.630890
     3.5555      0.633970
     3.5560      0.637030
     3.5565      0.639970
     3.5570      0.642910
     3.5575      0.643920
     3.5580      0.644130
     3.5585      0.644490
     3.5590      0.645230
     3.5595      0.645980
     3.5600      0.648140
     3.5605      0.650610
     3.5610      0.652980
     3.5615      0.655190
     3.5620      0.657400
     3.5625      0.659380
     3.5630      0.661350
     3.5635      0.663130
     3.5640      0.664720
     3.5645      0.666310
     3.5650      0.667740
     3.5655      0.669160
     3.5660      0.671030
     3.5665      0.673210
     3.5670      0.675470
     3.5675      0.678230
     3.5680      0.680980
     3.5685      0.683530
     3.5690      0.685990
     3.5695      0.688220
     3.5700      0.689670
     3.5705      0.691130
     3.5710      0.692450
     3.5715      0.693740
