# author : Oliver Czoske
# source : Ester Aranzana
# date_created : 2017-11-20
# date_modified: 2025-12-16
# status: Measured at 80 K
# wavelength_unit : um
# changes :
# - 2022-03-17 (KL) Updated to match Ric Davies' email
# - 2023-06-06 (RD) Modified profiles after discussion with Schott
# - 2025-06-16 (FH) Updated filter curve based on Ric Davies' email.
# - 2025-12-16 (OC) Replaced with measured values
#
 wavelength  transmission
     0.9990      0.002250
     0.9995      0.002250
     1.0000      0.000620
     1.0005      0.000030
     1.0010      0.000000
     1.0015      0.001860
     1.0020      0.000160
     1.0025      0.000000
     1.0030      0.002210
     1.0035      0.004910
     1.0040      0.000050
     1.0045      0.004680
     1.0050      0.003690
     1.0055      0.000060
     1.0060      0.000590
     1.0065      0.000000
     1.0070      0.000000
     1.0075      0.000830
     1.0080      0.000780
     1.0085      0.000660
     1.0090      0.003560
     1.0095      0.000790
     1.0100      0.000460
     1.0105      0.000830
     1.0110      0.000840
     1.0115      0.001890
     1.0120      0.000050
     1.0125      0.003110
     1.0130      0.000420
     1.0135      0.000000
     1.0140      0.000000
     1.0145      0.000850
     1.0150      0.002080
     1.0155      0.001140
     1.0160      0.000100
     1.0165      0.000300
     1.0170      0.000000
     1.0175      0.001060
     1.0180      0.000000
     1.0185      0.000000
     1.0190      0.001970
     1.0195      0.000000
     1.0200      0.001570
     1.0205      0.001580
     1.0210      0.001300
     1.0215      0.002060
     1.0220      0.002220
     1.0225      0.000070
     1.0230      0.002980
     1.0235      0.001080
     1.0240      0.001470
     1.0245      0.000300
     1.0250      0.000320
     1.0255      0.000000
     1.0260      0.001120
     1.0265      0.000000
     1.0270      0.000000
     1.0275      0.000000
     1.0280      0.000400
     1.0285      0.000000
     1.0290      0.000000
     1.0295      0.000000
     1.0300      0.001530
     1.0305      0.000000
     1.0310      0.000000
     1.0315      0.002070
     1.0320      0.000610
     1.0325      0.000320
     1.0330      0.000000
     1.0335      0.000000
     1.0340      0.001330
     1.0345      0.000000
     1.0350      0.000000
     1.0355      0.000000
     1.0360      0.000000
     1.0365      0.000010
     1.0370      0.000310
     1.0375      0.000290
     1.0380      0.000620
     1.0385      0.000840
     1.0390      0.000420
     1.0395      0.000010
     1.0400      0.000640
     1.0405      0.000320
     1.0410      0.000280
     1.0415      0.000000
     1.0420      0.000000
     1.0425      0.000000
     1.0430      0.000510
     1.0435      0.000250
     1.0440      0.000070
     1.0445      0.000940
     1.0450      0.000090
     1.0455      0.000000
     1.0460      0.000000
     1.0465      0.000000
     1.0470      0.000000
     1.0475      0.001870
     1.0480      0.000000
     1.0485      0.000370
     1.0490      0.000000
     1.0495      0.000000
     1.0500      0.000130
     1.0505      0.000660
     1.0510      0.000000
     1.0515      0.000000
     1.0520      0.000310
     1.0525      0.000540
     1.0530      0.000280
     1.0535      0.000750
     1.0540      0.000000
     1.0545      0.000000
     1.0550      0.000000
     1.0555      0.000040
     1.0560      0.000000
     1.0565      0.000000
     1.0570      0.000010
     1.0575      0.001650
     1.0580      0.000000
     1.0585      0.000000
     1.0590      0.000000
     1.0595      0.000510
     1.0600      0.000150
     1.0605      0.000000
     1.0610      0.000020
     1.0615      0.000000
     1.0620      0.000210
     1.0625      0.000000
     1.0630      0.000000
     1.0635      0.002270
     1.0640      0.000000
     1.0645      0.000000
     1.0650      0.000000
     1.0655      0.000300
     1.0660      0.000000
     1.0665      0.000000
     1.0670      0.000000
     1.0675      0.000170
     1.0680      0.001910
     1.0685      0.000000
     1.0690      0.000000
     1.0695      0.000000
     1.0700      0.000000
     1.0705      0.000000
     1.0710      0.000910
     1.0715      0.000000
     1.0720      0.001060
     1.0725      0.000640
     1.0730      0.000000
     1.0735      0.000000
     1.0740      0.000000
     1.0745      0.000000
     1.0750      0.000000
     1.0755      0.000000
     1.0760      0.000610
     1.0765      0.000130
     1.0770      0.000080
     1.0775      0.001560
     1.0780      0.000840
     1.0785      0.000860
     1.0790      0.001140
     1.0795      0.000000
     1.0800      0.000000
     1.0805      0.000670
     1.0810      0.000000
     1.0815      0.000100
     1.0820      0.001170
     1.0825      0.000980
     1.0830      0.000340
     1.0835      0.000360
     1.0840      0.000000
     1.0845      0.000000
     1.0850      0.000000
     1.0855      0.000780
     1.0860      0.000010
     1.0865      0.000000
     1.0870      0.000000
     1.0875      0.000750
     1.0880      0.000000
     1.0885      0.001180
     1.0890      0.000000
     1.0895      0.000920
     1.0900      0.000000
     1.0905      0.000610
     1.0910      0.000880
     1.0915      0.000000
     1.0920      0.000000
     1.0925      0.000000
     1.0930      0.000000
     1.0935      0.000830
     1.0940      0.000420
     1.0945      0.001290
     1.0950      0.000880
     1.0955      0.000130
     1.0960      0.001220
     1.0965      0.001500
     1.0970      0.000450
     1.0975      0.001670
     1.0980      0.000060
     1.0985      0.000000
     1.0990      0.003310
     1.0995      0.000000
     1.1000      0.000000
     1.1005      0.000000
     1.1010      0.000020
     1.1015      0.000330
     1.1020      0.000000
     1.1025      0.000340
     1.1030      0.000130
     1.1035      0.000170
     1.1040      0.000000
     1.1045      0.000490
     1.1050      0.000000
     1.1055      0.000900
     1.1060      0.000480
     1.1065      0.000000
     1.1070      0.000800
     1.1075      0.001060
     1.1080      0.000650
     1.1085      0.002710
     1.1090      0.000000
     1.1095      0.001750
     1.1100      0.001210
     1.1105      0.001410
     1.1110      0.000630
     1.1115      0.000000
     1.1120      0.000000
     1.1125      0.000000
     1.1130      0.001810
     1.1135      0.001130
     1.1140      0.000000
     1.1145      0.000420
     1.1150      0.000340
     1.1155      0.002270
     1.1160      0.002040
     1.1165      0.000620
     1.1170      0.003690
     1.1175      0.000690
     1.1180      0.000430
     1.1185      0.001890
     1.1190      0.000860
     1.1195      0.000610
     1.1200      0.002320
     1.1205      0.003080
     1.1210      0.001470
     1.1215      0.000000
     1.1220      0.000160
     1.1225      0.000000
     1.1230      0.001700
     1.1235      0.003360
     1.1240      0.000060
     1.1245      0.002380
     1.1250      0.002080
     1.1255      0.000000
     1.1260      0.001860
     1.1265      0.000000
     1.1270      0.002940
     1.1275      0.000750
     1.1280      0.002410
     1.1285      0.001110
     1.1290      0.000870
     1.1295      0.001840
     1.1300      0.000750
     1.1305      0.000640
     1.1310      0.000000
     1.1315      0.000610
     1.1320      0.002250
     1.1325      0.005070
     1.1330      0.002520
     1.1335      0.001790
     1.1340      0.001040
     1.1345      0.000610
     1.1350      0.000630
     1.1355      0.001930
     1.1360      0.002950
     1.1365      0.004170
     1.1370      0.003130
     1.1375      0.004870
     1.1380      0.004310
     1.1385      0.003880
     1.1390      0.004120
     1.1395      0.005690
     1.1400      0.007130
     1.1405      0.009680
     1.1410      0.010840
     1.1415      0.014490
     1.1420      0.016920
     1.1425      0.018860
     1.1430      0.023330
     1.1435      0.029910
     1.1440      0.036880
     1.1445      0.045190
     1.1450      0.058810
     1.1455      0.073010
     1.1460      0.094380
     1.1465      0.121590
     1.1470      0.160120
     1.1475      0.208210
     1.1480      0.265470
     1.1485      0.340400
     1.1490      0.425260
     1.1495      0.523520
     1.1500      0.623730
     1.1505      0.718300
     1.1510      0.800770
     1.1515      0.865730
     1.1520      0.911290
     1.1525      0.944570
     1.1530      0.956230
     1.1535      0.962710
     1.1540      0.964820
     1.1545      0.964140
     1.1550      0.962370
     1.1555      0.957650
     1.1560      0.959000
     1.1565      0.958080
     1.1570      0.956700
     1.1575      0.957280
     1.1580      0.957950
     1.1585      0.962410
     1.1590      0.963130
     1.1595      0.965660
     1.1600      0.967470
     1.1605      0.969150
     1.1610      0.969620
     1.1615      0.972190
     1.1620      0.974160
     1.1625      0.976710
     1.1630      0.975390
     1.1635      0.976070
     1.1640      0.977800
     1.1645      0.975020
     1.1650      0.973140
     1.1655      0.977010
     1.1660      0.972740
     1.1665      0.975440
     1.1670      0.972510
     1.1675      0.973130
     1.1680      0.971030
     1.1685      0.974000
     1.1690      0.971100
     1.1695      0.970510
     1.1700      0.971490
     1.1705      0.969760
     1.1710      0.969980
     1.1715      0.967830
     1.1720      0.968210
     1.1725      0.966860
     1.1730      0.968150
     1.1735      0.967150
     1.1740      0.966940
     1.1745      0.966330
     1.1750      0.966620
     1.1755      0.968070
     1.1760      0.968960
     1.1765      0.967700
     1.1770      0.968700
     1.1775      0.967950
     1.1780      0.967970
     1.1785      0.968470
     1.1790      0.968010
     1.1795      0.970200
     1.1800      0.971910
     1.1805      0.970850
     1.1810      0.973840
     1.1815      0.972680
     1.1820      0.973230
     1.1825      0.973540
     1.1830      0.972900
     1.1835      0.973800
     1.1840      0.976420
     1.1845      0.978070
     1.1850      0.977420
     1.1855      0.978090
     1.1860      0.978210
     1.1865      0.977000
     1.1870      0.977440
     1.1875      0.978310
     1.1880      0.978420
     1.1885      0.979640
     1.1890      0.979820
     1.1895      0.981170
     1.1900      0.980740
     1.1905      0.979680
     1.1910      0.978750
     1.1915      0.980070
     1.1920      0.980730
     1.1925      0.979840
     1.1930      0.983310
     1.1935      0.982950
     1.1940      0.983370
     1.1945      0.982750
     1.1950      0.982330
     1.1955      0.984750
     1.1960      0.985500
     1.1965      0.984310
     1.1970      0.984390
     1.1975      0.985950
     1.1980      0.984930
     1.1985      0.987210
     1.1990      0.986430
     1.1995      0.985000
     1.2000      0.985990
     1.2005      0.986110
     1.2010      0.986420
     1.2015      0.986610
     1.2020      0.987640
     1.2025      0.985620
     1.2030      0.987340
     1.2035      0.986290
     1.2040      0.987510
     1.2045      0.985240
     1.2050      0.987140
     1.2055      0.986290
     1.2060      0.986470
     1.2065      0.987040
     1.2070      0.986540
     1.2075      0.985600
     1.2080      0.987230
     1.2085      0.984700
     1.2090      0.987570
     1.2095      0.987300
     1.2100      0.985900
     1.2105      0.987010
     1.2110      0.987930
     1.2115      0.985480
     1.2120      0.986470
     1.2125      0.987840
     1.2130      0.987050
     1.2135      0.987270
     1.2140      0.987900
     1.2145      0.984940
     1.2150      0.986270
     1.2155      0.986340
     1.2160      0.986220
     1.2165      0.984850
     1.2170      0.986590
     1.2175      0.986470
     1.2180      0.986800
     1.2185      0.985150
     1.2190      0.987020
     1.2195      0.988540
     1.2200      0.986250
     1.2205      0.987440
     1.2210      0.985190
     1.2215      0.986720
     1.2220      0.986140
     1.2225      0.986910
     1.2230      0.986030
     1.2235      0.985820
     1.2240      0.987620
     1.2245      0.987260
     1.2250      0.987190
     1.2255      0.987270
     1.2260      0.987870
     1.2265      0.988480
     1.2270      0.985450
     1.2275      0.984350
     1.2280      0.985670
     1.2285      0.984200
     1.2290      0.985350
     1.2295      0.984550
     1.2300      0.985140
     1.2305      0.984060
     1.2310      0.982940
     1.2315      0.982330
     1.2320      0.983840
     1.2325      0.985510
     1.2330      0.983650
     1.2335      0.984650
     1.2340      0.982870
     1.2345      0.982680
     1.2350      0.984580
     1.2355      0.984880
     1.2360      0.985440
     1.2365      0.985870
     1.2370      0.983640
     1.2375      0.985040
     1.2380      0.986170
     1.2385      0.985850
     1.2390      0.985820
     1.2395      0.987680
     1.2400      0.986320
     1.2405      0.986350
     1.2410      0.986820
     1.2415      0.985050
     1.2420      0.984400
     1.2425      0.984630
     1.2430      0.982700
     1.2435      0.982540
     1.2440      0.982900
     1.2445      0.979240
     1.2450      0.980620
     1.2455      0.981840
     1.2460      0.978180
     1.2465      0.976140
     1.2470      0.974300
     1.2475      0.972520
     1.2480      0.971230
     1.2485      0.968200
     1.2490      0.965580
     1.2495      0.963900
     1.2500      0.959700
     1.2505      0.954640
     1.2510      0.950080
     1.2515      0.945260
     1.2520      0.940410
     1.2525      0.933510
     1.2530      0.929960
     1.2535      0.924190
     1.2540      0.918450
     1.2545      0.917280
     1.2550      0.916770
     1.2555      0.919750
     1.2560      0.921310
     1.2565      0.923090
     1.2570      0.929340
     1.2575      0.933180
     1.2580      0.933860
     1.2585      0.927680
     1.2590      0.905640
     1.2595      0.867680
     1.2600      0.804440
     1.2605      0.721040
     1.2610      0.619480
     1.2615      0.514050
     1.2620      0.410340
     1.2625      0.319620
     1.2630      0.246560
     1.2635      0.186310
     1.2640      0.140810
     1.2645      0.108050
     1.2650      0.083150
     1.2655      0.063110
     1.2660      0.049370
     1.2665      0.039690
     1.2670      0.031280
     1.2675      0.024880
     1.2680      0.020310
     1.2685      0.018000
     1.2690      0.013770
     1.2695      0.012190
     1.2700      0.011020
     1.2705      0.009820
     1.2710      0.007460
     1.2715      0.008260
     1.2720      0.006960
     1.2725      0.006120
     1.2730      0.006010
     1.2735      0.005630
     1.2740      0.004960
     1.2745      0.004750
     1.2750      0.002960
     1.2755      0.004060
     1.2760      0.003740
     1.2765      0.003250
     1.2770      0.003640
     1.2775      0.002760
     1.2780      0.002980
     1.2785      0.002550
     1.2790      0.002370
     1.2795      0.002260
     1.2800      0.001880
     1.2805      0.002640
     1.2810      0.001620
     1.2815      0.002110
     1.2820      0.002150
     1.2825      0.000700
     1.2830      0.001950
     1.2835      0.001410
     1.2840      0.001410
     1.2845      0.000970
     1.2850      0.001180
     1.2855      0.002390
     1.2860      0.001210
     1.2865      0.000810
     1.2870      0.001560
     1.2875      0.001290
     1.2880      0.000070
     1.2885      0.000840
     1.2890      0.001070
     1.2895      0.001330
     1.2900      0.000040
     1.2905      0.000780
     1.2910      0.001040
     1.2915      0.000970
     1.2920      0.000600
     1.2925      0.000190
     1.2930      0.001990
     1.2935      0.001440
     1.2940      0.000880
     1.2945      0.001130
     1.2950      0.001420
     1.2955      0.000580
     1.2960      0.001220
     1.2965      0.000870
     1.2970      0.000210
     1.2975      0.000580
     1.2980      0.000780
     1.2985      0.001240
     1.2990      0.000890
     1.2995      0.000640
     1.3000      0.000750
     1.3005      0.000790
     1.3010      0.001110
     1.3015      0.000340
     1.3020      0.000000
     1.3025      0.000730
     1.3030      0.000000
     1.3035      0.000000
     1.3040      0.000000
     1.3045      0.000670
     1.3050      0.000200
     1.3055      0.000400
     1.3060      0.000000
     1.3065      0.000000
     1.3070      0.000150
     1.3075      0.000700
     1.3080      0.001140
     1.3085      0.000060
     1.3090      0.000000
     1.3095      0.000270
     1.3100      0.000900
     1.3105      0.000580
     1.3110      0.000240
     1.3115      0.000860
     1.3120      0.000000
     1.3125      0.000700
     1.3130      0.001530
     1.3135      0.000550
     1.3140      0.000790
     1.3145      0.000150
     1.3150      0.000440
     1.3155      0.000990
     1.3160      0.000240
     1.3165      0.000390
     1.3170      0.000370
     1.3175      0.000260
     1.3180      0.000000
     1.3185      0.000470
     1.3190      0.000190
     1.3195      0.000400
     1.3200      0.000180
     1.3205      0.000530
     1.3210      0.000680
     1.3215      0.000500
     1.3220      0.000590
     1.3225      0.000030
     1.3230      0.000640
     1.3235      0.000120
     1.3240      0.000510
     1.3245      0.001150
     1.3250      0.001580
     1.3255      0.001600
     1.3260      0.000370
     1.3265      0.000000
     1.3270      0.000530
     1.3275      0.000330
     1.3280      0.000000
     1.3285      0.000390
     1.3290      0.000110
     1.3295      0.000430
     1.3300      0.000900
     1.3305      0.000390
     1.3310      0.000310
     1.3315      0.000410
     1.3320      0.000560
     1.3325      0.000000
     1.3330      0.000000
     1.3335      0.000250
     1.3340      0.000060
     1.3345      0.000760
     1.3350      0.000200
     1.3355      0.000870
     1.3360      0.000480
     1.3365      0.000750
     1.3370      0.001230
     1.3375      0.000430
     1.3380      0.000670
     1.3385      0.000170
     1.3390      0.000080
     1.3395      0.000000
     1.3400      0.000400
     1.3405      0.000200
     1.3410      0.000000
     1.3415      0.000020
     1.3420      0.000580
     1.3425      0.000400
     1.3430      0.000000
     1.3435      0.000000
     1.3440      0.000000
     1.3445      0.000010
     1.3450      0.000410
     1.3455      0.000390
     1.3460      0.000000
     1.3465      0.000000
     1.3470      0.000290
     1.3475      0.000010
     1.3480      0.000110
     1.3485      0.000150
     1.3490      0.000000
     1.3495      0.000210
     1.3500      0.000540
     1.3505      0.000570
     1.3510      0.000000
     1.3515      0.000000
     1.3520      0.000000
     1.3525      0.000850
     1.3530      0.000000
     1.3535      0.000380
     1.3540      0.000020
     1.3545      0.000160
     1.3550      0.000000
     1.3555      0.000400
     1.3560      0.000350
     1.3565      0.000000
     1.3570      0.000000
     1.3575      0.000000
     1.3580      0.000290
     1.3585      0.000410
     1.3590      0.000500
     1.3595      0.000000
     1.3600      0.000060
     1.3605      0.000110
     1.3610      0.000540
     1.3615      0.000820
     1.3620      0.000140
     1.3625      0.000320
     1.3630      0.000750
     1.3635      0.000000
     1.3640      0.000490
     1.3645      0.000000
     1.3650      0.000000
     1.3655      0.000000
     1.3660      0.000000
     1.3665      0.000380
     1.3670      0.000130
     1.3675      0.000670
     1.3680      0.000780
     1.3685      0.000010
     1.3690      0.000000
     1.3695      0.000190
     1.3700      0.000000
     1.3705      0.000080
     1.3710      0.000000
     1.3715      0.000000
     1.3720      0.000000
     1.3725      0.000000
     1.3730      0.000000
     1.3735      0.001080
     1.3740      0.000820
     1.3745      0.000440
     1.3750      0.000000
     1.3755      0.000000
     1.3760      0.000030
     1.3765      0.000020
     1.3770      0.000050
     1.3775      0.000350
     1.3780      0.000360
     1.3785      0.000160
     1.3790      0.000000
     1.3795      0.000000
     1.3800      0.000540
     1.3805      0.000840
     1.3810      0.000000
     1.3815      0.000000
     1.3820      0.000120
     1.3825      0.000000
     1.3830      0.000040
     1.3835      0.000630
     1.3840      0.000000
     1.3845      0.000150
     1.3850      0.001550
     1.3855      0.000360
     1.3860      0.000280
     1.3865      0.000000
     1.3870      0.000170
     1.3875      0.000000
     1.3880      0.001560
     1.3885      0.000230
     1.3890      0.000310
     1.3895      0.000710
     1.3900      0.000760
     1.3905      0.000490
     1.3910      0.001270
     1.3915      0.000420
     1.3920      0.000000
     1.3925      0.000150
     1.3930      0.000760
     1.3935      0.001030
     1.3940      0.000000
     1.3945      0.000390
     1.3950      0.000490
     1.3955      0.000230
     1.3960      0.000120
     1.3965      0.000380
     1.3970      0.000560
     1.3975      0.000620
     1.3980      0.001320
     1.3985      0.000260
     1.3990      0.000000
     1.3995      0.000000
     1.4000      0.000060
     1.4005      0.000050
     1.4010      0.000350
     1.4015      0.000250
     1.4020      0.000230
     1.4025      0.000480
     1.4030      0.000530
     1.4035      0.000240
     1.4040      0.000130
     1.4045      0.000010
     1.4050      0.000000
     1.4055      0.000840
     1.4060      0.000060
     1.4065      0.000490
     1.4070      0.000050
     1.4075      0.000000
     1.4080      0.000000
     1.4085      0.000350
     1.4090      0.000730
     1.4095      0.000000
     1.4100      0.000440
     1.4105      0.000600
     1.4110      0.000000
     1.4115      0.000110
     1.4120      0.000000
     1.4125      0.000860
     1.4130      0.000390
     1.4135      0.000040
     1.4140      0.000160
     1.4145      0.000310
     1.4150      0.000790
     1.4155      0.000680
     1.4160      0.000480
     1.4165      0.000450
     1.4170      0.000080
     1.4175      0.000400
     1.4180      0.000190
     1.4185      0.000000
     1.4190      0.000270
     1.4195      0.000520
     1.4200      0.000000
     1.4205      0.000180
     1.4210      0.000580
     1.4215      0.000260
     1.4220      0.000010
     1.4225      0.000480
     1.4230      0.000650
     1.4235      0.000600
     1.4240      0.000340
     1.4245      0.000190
     1.4250      0.000000
     1.4255      0.000930
     1.4260      0.000890
     1.4265      0.000060
     1.4270      0.000080
     1.4275      0.000000
     1.4280      0.000790
     1.4285      0.000000
     1.4290      0.000030
     1.4295      0.000030
     1.4300      0.000000
     1.4305      0.000000
     1.4310      0.000000
     1.4315      0.000000
     1.4320      0.000000
     1.4325      0.000430
     1.4330      0.000860
     1.4335      0.000280
     1.4340      0.000610
     1.4345      0.000020
     1.4350      0.001050
     1.4355      0.001080
     1.4360      0.000000
     1.4365      0.000170
     1.4370      0.001280
     1.4375      0.000090
     1.4380      0.000020
     1.4385      0.000520
     1.4390      0.000460
     1.4395      0.000000
     1.4400      0.000150
     1.4405      0.000000
     1.4410      0.000620
     1.4415      0.000000
     1.4420      0.000800
     1.4425      0.001100
     1.4430      0.001120
     1.4435      0.000420
     1.4440      0.000630
     1.4445      0.000640
     1.4450      0.000000
     1.4455      0.000000
     1.4460      0.000060
     1.4465      0.000030
     1.4470      0.000000
     1.4475      0.000000
     1.4480      0.000180
     1.4485      0.000230
     1.4490      0.000070
     1.4495      0.000000
     1.4500      0.000540
     1.4505      0.001010
     1.4510      0.000930
     1.4515      0.000030
     1.4520      0.000310
     1.4525      0.000220
     1.4530      0.000100
     1.4535      0.000680
     1.4540      0.000430
     1.4545      0.000460
     1.4550      0.000290
     1.4555      0.000910
     1.4560      0.000000
     1.4565      0.000000
     1.4570      0.000690
     1.4575      0.000140
     1.4580      0.000530
     1.4585      0.000360
     1.4590      0.000190
     1.4595      0.000120
     1.4600      0.000040
     1.4605      0.000590
     1.4610      0.000910
     1.4615      0.000880
     1.4620      0.000050
     1.4625      0.000020
     1.4630      0.000280
     1.4635      0.000000
     1.4640      0.000270
     1.4645      0.000300
     1.4650      0.000320
     1.4655      0.000630
     1.4660      0.001100
     1.4665      0.000400
     1.4670      0.000790
     1.4675      0.000000
     1.4680      0.000100
     1.4685      0.000530
     1.4690      0.000530
     1.4695      0.000140
     1.4700      0.000140
     1.4705      0.000320
     1.4710      0.000470
     1.4715      0.000540
     1.4720      0.000000
     1.4725      0.000820
     1.4730      0.000840
     1.4735      0.001110
     1.4740      0.000270
     1.4745      0.000000
     1.4750      0.000700
     1.4755      0.000520
     1.4760      0.000040
     1.4765      0.000470
     1.4770      0.000000
     1.4775      0.000670
     1.4780      0.000000
     1.4785      0.000420
     1.4790      0.000010
     1.4795      0.000590
     1.4800      0.000270
     1.4805      0.000060
     1.4810      0.000500
     1.4815      0.000620
     1.4820      0.000560
     1.4825      0.000600
     1.4830      0.001120
     1.4835      0.000530
     1.4840      0.000150
     1.4845      0.000670
     1.4850      0.000090
     1.4855      0.000220
     1.4860      0.000420
     1.4865      0.000340
     1.4870      0.000930
     1.4875      0.000410
     1.4880      0.000730
     1.4885      0.000930
     1.4890      0.000450
     1.4895      0.000310
     1.4900      0.000000
     1.4905      0.000000
     1.4910      0.000000
     1.4915      0.000000
     1.4920      0.000450
     1.4925      0.000000
     1.4930      0.000000
     1.4935      0.000540
     1.4940      0.001000
     1.4945      0.000610
     1.4950      0.000060
     1.4955      0.000720
     1.4960      0.000570
     1.4965      0.000510
     1.4970      0.000140
     1.4975      0.000460
     1.4980      0.000340
     1.4985      0.000000
     1.4990      0.000000
     1.4995      0.000150
     1.5000      0.000120
     1.5005      0.000200
     1.5010      0.000420
     1.5015      0.000020
     1.5020      0.000410
     1.5025      0.000000
     1.5030      0.000410
     1.5035      0.000340
     1.5040      0.001190
     1.5045      0.000560
     1.5050      0.000410
     1.5055      0.000160
     1.5060      0.000860
     1.5065      0.000000
     1.5070      0.000010
     1.5075      0.000550
     1.5080      0.000340
     1.5085      0.000620
     1.5090      0.000430
     1.5095      0.000700
     1.5100      0.000380
     1.5105      0.000680
     1.5110      0.000340
     1.5115      0.000000
     1.5120      0.001140
     1.5125      0.000990
     1.5130      0.000960
     1.5135      0.000930
     1.5140      0.000060
     1.5145      0.001110
     1.5150      0.000590
     1.5155      0.000200
     1.5160      0.000290
     1.5165      0.000000
     1.5170      0.000000
     1.5175      0.000290
     1.5180      0.000230
     1.5185      0.000680
     1.5190      0.000460
     1.5195      0.000860
     1.5200      0.000900
     1.5205      0.000410
     1.5210      0.000510
     1.5215      0.000010
     1.5220      0.000600
     1.5225      0.000600
     1.5230      0.000590
     1.5235      0.000260
     1.5240      0.000420
     1.5245      0.000480
     1.5250      0.000730
     1.5255      0.000000
     1.5260      0.000000
     1.5265      0.000160
     1.5270      0.000310
     1.5275      0.000570
     1.5280      0.000030
     1.5285      0.000770
     1.5290      0.000950
     1.5295      0.000110
     1.5300      0.000790
     1.5305      0.000350
     1.5310      0.000760
     1.5315      0.000120
     1.5320      0.000920
     1.5325      0.000100
     1.5330      0.000010
     1.5335      0.000450
     1.5340      0.000530
     1.5345      0.000190
     1.5350      0.000470
     1.5355      0.000380
     1.5360      0.000070
     1.5365      0.000000
     1.5370      0.000440
     1.5375      0.000770
     1.5380      0.000220
     1.5385      0.000250
     1.5390      0.000000
     1.5395      0.000920
     1.5400      0.000100
     1.5405      0.000730
     1.5410      0.000000
     1.5415      0.000360
     1.5420      0.000190
     1.5425      0.000000
     1.5430      0.000160
     1.5435      0.000790
     1.5440      0.000830
     1.5445      0.000950
     1.5450      0.000710
     1.5455      0.000370
     1.5460      0.000980
     1.5465      0.000250
     1.5470      0.000390
     1.5475      0.001140
     1.5480      0.000450
     1.5485      0.000450
     1.5490      0.000820
     1.5495      0.000650
     1.5500      0.000590
     1.5505      0.000600
     1.5510      0.000680
     1.5515      0.000790
     1.5520      0.000100
     1.5525      0.000270
     1.5530      0.000230
     1.5535      0.000580
     1.5540      0.000830
     1.5545      0.000770
     1.5550      0.000200
     1.5555      0.000210
     1.5560      0.000260
     1.5565      0.000330
     1.5570      0.000000
     1.5575      0.000480
     1.5580      0.000030
     1.5585      0.001060
     1.5590      0.000760
     1.5595      0.000580
     1.5600      0.000220
     1.5605      0.000050
     1.5610      0.000020
     1.5615      0.000330
     1.5620      0.000390
     1.5625      0.000680
     1.5630      0.000460
     1.5635      0.000640
     1.5640      0.000020
     1.5645      0.000540
     1.5650      0.000060
     1.5655      0.000610
     1.5660      0.000440
     1.5665      0.001010
     1.5670      0.000450
     1.5675      0.000000
     1.5680      0.000140
     1.5685      0.000140
     1.5690      0.000000
     1.5695      0.000550
     1.5700      0.000610
     1.5705      0.000290
     1.5710      0.000290
     1.5715      0.000440
     1.5720      0.000750
     1.5725      0.000880
     1.5730      0.000620
     1.5735      0.000000
     1.5740      0.000250
     1.5745      0.000770
     1.5750      0.001140
     1.5755      0.000140
     1.5760      0.000220
     1.5765      0.000090
     1.5770      0.000450
     1.5775      0.000170
     1.5780      0.000000
     1.5785      0.000000
     1.5790      0.000000
     1.5795      0.000000
     1.5800      0.000000
     1.5805      0.000340
     1.5810      0.000810
     1.5815      0.000970
     1.5820      0.000530
     1.5825      0.000000
     1.5830      0.000000
     1.5835      0.000350
     1.5840      0.000300
     1.5845      0.000010
     1.5850      0.000380
     1.5855      0.000370
     1.5860      0.000580
     1.5865      0.000520
     1.5870      0.000720
     1.5875      0.000000
     1.5880      0.000170
     1.5885      0.000560
     1.5890      0.000320
     1.5895      0.000770
     1.5900      0.000290
     1.5905      0.000440
     1.5910      0.000000
     1.5915      0.000000
     1.5920      0.000000
     1.5925      0.000050
     1.5930      0.000870
     1.5935      0.000800
     1.5940      0.000790
     1.5945      0.000260
     1.5950      0.000060
     1.5955      0.000450
     1.5960      0.000290
     1.5965      0.000340
     1.5970      0.000310
     1.5975      0.000190
     1.5980      0.000130
     1.5985      0.000380
     1.5990      0.000130
     1.5995      0.000310
     1.6000      0.000450
     1.6005      0.000050
     1.6010      0.000440
     1.6015      0.000240
     1.6020      0.000340
     1.6025      0.000210
     1.6030      0.000000
     1.6035      0.000000
     1.6040      0.000010
     1.6045      0.000000
     1.6050      0.000000
     1.6055      0.000000
     1.6060      0.000240
     1.6065      0.000680
     1.6070      0.000690
     1.6075      0.000490
     1.6080      0.000010
     1.6085      0.000540
     1.6090      0.000000
     1.6095      0.000550
     1.6100      0.000060
     1.6105      0.000310
     1.6110      0.000480
     1.6115      0.000680
     1.6120      0.000000
     1.6125      0.000310
     1.6130      0.000000
     1.6135      0.000000
     1.6140      0.000070
     1.6145      0.000090
     1.6150      0.000030
     1.6155      0.000180
     1.6160      0.000640
     1.6165      0.000590
     1.6170      0.000110
     1.6175      0.000500
     1.6180      0.000370
     1.6185      0.000310
     1.6190      0.000610
     1.6195      0.000350
     1.6200      0.000370
     1.6205      0.000350
     1.6210      0.000000
     1.6215      0.000000
     1.6220      0.000030
     1.6225      0.000100
     1.6230      0.000220
     1.6235      0.000170
     1.6240      0.000960
     1.6245      0.000510
     1.6250      0.000010
     1.6255      0.000170
     1.6260      0.000000
     1.6265      0.000760
     1.6270      0.000090
     1.6275      0.000000
     1.6280      0.000000
     1.6285      0.000060
     1.6290      0.000240
     1.6295      0.000290
     1.6300      0.000000
     1.6305      0.000230
     1.6310      0.000000
     1.6315      0.000000
     1.6320      0.000000
     1.6325      0.000080
     1.6330      0.000070
     1.6335      0.000000
     1.6340      0.000040
     1.6345      0.000580
     1.6350      0.000540
     1.6355      0.000140
     1.6360      0.000010
     1.6365      0.000000
     1.6370      0.000180
     1.6375      0.000410
     1.6380      0.000300
     1.6385      0.000160
     1.6390      0.000040
     1.6395      0.000070
     1.6400      0.000030
     1.6405      0.000080
     1.6410      0.000690
     1.6415      0.000750
     1.6420      0.000000
     1.6425      0.000080
     1.6430      0.000140
     1.6435      0.000420
     1.6440      0.000220
     1.6445      0.000690
     1.6450      0.001050
     1.6455      0.000850
     1.6460      0.000410
     1.6465      0.000000
     1.6470      0.000120
     1.6475      0.000440
     1.6480      0.000000
     1.6485      0.000190
     1.6490      0.000410
     1.6495      0.000370
     1.6500      0.000220
     1.6505      0.000660
     1.6510      0.000450
     1.6515      0.000760
     1.6520      0.000490
     1.6525      0.000800
     1.6530      0.001080
     1.6535      0.000570
     1.6540      0.000540
     1.6545      0.000000
     1.6550      0.000000
     1.6555      0.000000
     1.6560      0.000260
     1.6565      0.000200
     1.6570      0.000510
     1.6575      0.000200
     1.6580      0.000350
     1.6585      0.000480
     1.6590      0.000360
     1.6595      0.000190
     1.6600      0.000010
     1.6605      0.000000
     1.6610      0.000190
     1.6615      0.000070
     1.6620      0.000000
     1.6625      0.000000
     1.6630      0.000020
     1.6635      0.000150
     1.6640      0.000690
     1.6645      0.000000
     1.6650      0.000200
     1.6655      0.000520
     1.6660      0.000330
     1.6665      0.000370
     1.6670      0.000340
     1.6675      0.000510
     1.6680      0.000630
     1.6685      0.000360
     1.6690      0.000540
     1.6695      0.000860
     1.6700      0.000760
     1.6705      0.000260
     1.6710      0.000000
     1.6715      0.000230
     1.6720      0.000290
     1.6725      0.000120
     1.6730      0.000130
     1.6735      0.000310
     1.6740      0.000160
     1.6745      0.000500
     1.6750      0.000090
     1.6755      0.000070
     1.6760      0.000550
     1.6765      0.000520
     1.6770      0.000270
     1.6775      0.000000
     1.6780      0.000380
     1.6785      0.000220
     1.6790      0.000040
     1.6795      0.000000
     1.6800      0.000000
     1.6805      0.000540
     1.6810      0.000390
     1.6815      0.000260
     1.6820      0.000450
     1.6825      0.000140
     1.6830      0.000520
     1.6835      0.000740
     1.6840      0.000100
     1.6845      0.000000
     1.6850      0.000190
     1.6855      0.000000
     1.6860      0.000000
     1.6865      0.000000
     1.6870      0.000000
     1.6875      0.000180
     1.6880      0.000280
     1.6885      0.000130
     1.6890      0.000770
     1.6895      0.000340
     1.6900      0.000070
     1.6905      0.000100
     1.6910      0.000810
     1.6915      0.000870
     1.6920      0.000000
     1.6925      0.000000
     1.6930      0.000000
     1.6935      0.000000
     1.6940      0.000000
     1.6945      0.000000
     1.6950      0.000000
     1.6955      0.000000
     1.6960      0.000000
     1.6965      0.000000
     1.6970      0.000060
     1.6975      0.000020
     1.6980      0.000200
     1.6985      0.000290
     1.6990      0.000350
     1.6995      0.000680
     1.7000      0.000550
     1.7005      0.000350
     1.7010      0.000470
     1.7015      0.000000
     1.7020      0.000000
     1.7025      0.000140
     1.7030      0.000250
     1.7035      0.000110
     1.7040      0.000490
     1.7045      0.000520
     1.7050      0.000480
     1.7055      0.000390
     1.7060      0.000410
     1.7065      0.000100
     1.7070      0.000470
     1.7075      0.000240
     1.7080      0.000110
     1.7085      0.000050
     1.7090      0.000000
     1.7095      0.000050
     1.7100      0.000000
     1.7105      0.000020
     1.7110      0.000010
     1.7115      0.000000
     1.7120      0.000000
     1.7125      0.000000
     1.7130      0.000000
     1.7135      0.000000
     1.7140      0.000000
     1.7145      0.000490
     1.7150      0.000500
     1.7155      0.000050
     1.7160      0.000000
     1.7165      0.000050
     1.7170      0.000000
     1.7175      0.000050
     1.7180      0.000080
     1.7185      0.000000
     1.7190      0.000020
     1.7195      0.000120
     1.7200      0.000250
     1.7205      0.000390
     1.7210      0.000000
     1.7215      0.000380
     1.7220      0.000080
     1.7225      0.000000
     1.7230      0.000000
     1.7235      0.000010
     1.7240      0.000000
     1.7245      0.000030
     1.7250      0.000140
     1.7255      0.000230
     1.7260      0.000000
     1.7265      0.000000
     1.7270      0.000030
     1.7275      0.000300
     1.7280      0.000000
     1.7285      0.000000
     1.7290      0.000000
     1.7295      0.000000
     1.7300      0.000000
     1.7305      0.000000
     1.7310      0.000040
     1.7315      0.000110
     1.7320      0.000000
     1.7325      0.000000
     1.7330      0.000000
     1.7335      0.000180
     1.7340      0.000000
     1.7345      0.000000
     1.7350      0.000490
     1.7355      0.000000
     1.7360      0.000120
     1.7365      0.000000
     1.7370      0.000000
     1.7375      0.000030
     1.7380      0.000070
     1.7385      0.000000
     1.7390      0.000240
     1.7395      0.000340
     1.7400      0.000020
     1.7405      0.000000
     1.7410      0.000000
     1.7415      0.000000
     1.7420      0.000210
     1.7425      0.000060
     1.7430      0.000440
     1.7435      0.000410
     1.7440      0.000000
     1.7445      0.000220
     1.7450      0.000020
     1.7455      0.000000
     1.7460      0.000000
     1.7465      0.000010
     1.7470      0.000350
     1.7475      0.000110
     1.7480      0.000020
     1.7485      0.000000
     1.7490      0.000000
     1.7495      0.000000
     1.7500      0.000060
     1.7505      0.000380
     1.7510      0.000000
     1.7515      0.000000
     1.7520      0.000000
     1.7525      0.000140
     1.7530      0.000000
     1.7535      0.000000
     1.7540      0.000000
     1.7545      0.000000
     1.7550      0.000000
     1.7555      0.000000
     1.7560      0.000000
     1.7565      0.000000
     1.7570      0.000000
     1.7575      0.000000
     1.7580      0.000000
     1.7585      0.000000
     1.7590      0.000000
     1.7595      0.000000
     1.7600      0.000090
     1.7605      0.000170
     1.7610      0.000190
     1.7615      0.000000
     1.7620      0.000160
     1.7625      0.000610
     1.7630      0.000390
     1.7635      0.000040
     1.7640      0.000470
     1.7645      0.000040
     1.7650      0.000000
     1.7655      0.000010
     1.7660      0.000000
     1.7665      0.000270
     1.7670      0.000190
     1.7675      0.000070
     1.7680      0.000000
     1.7685      0.000060
     1.7690      0.000130
     1.7695      0.000000
     1.7700      0.000000
     1.7705      0.000000
     1.7710      0.000020
     1.7715      0.000220
     1.7720      0.000000
     1.7725      0.000000
     1.7730      0.000000
     1.7735      0.000100
     1.7740      0.000000
     1.7745      0.000000
     1.7750      0.000000
     1.7755      0.000120
     1.7760      0.000270
     1.7765      0.000560
     1.7770      0.000480
     1.7775      0.000000
     1.7780      0.000500
     1.7785      0.000260
     1.7790      0.000470
     1.7795      0.000170
     1.7800      0.000070
     1.7805      0.000570
     1.7810      0.000320
     1.7815      0.000530
     1.7820      0.000210
     1.7825      0.000000
     1.7830      0.000070
     1.7835      0.000000
     1.7840      0.000000
     1.7845      0.000000
     1.7850      0.000000
     1.7855      0.000300
     1.7860      0.000240
     1.7865      0.000090
     1.7870      0.000000
     1.7875      0.000000
     1.7880      0.000000
     1.7885      0.000060
     1.7890      0.000000
     1.7895      0.000020
     1.7900      0.000000
     1.7905      0.000000
     1.7910      0.000110
     1.7915      0.000070
     1.7920      0.000000
     1.7925      0.000000
     1.7930      0.000000
     1.7935      0.000000
     1.7940      0.000000
     1.7945      0.000000
     1.7950      0.000020
     1.7955      0.000000
     1.7960      0.000010
     1.7965      0.000000
     1.7970      0.000000
     1.7975      0.000000
     1.7980      0.000000
     1.7985      0.000000
     1.7990      0.000010
     1.7995      0.000090
     1.8000      0.000020
     1.8005      0.000540
     1.8010      0.000140
     1.8015      0.000000
     1.8020      0.000000
     1.8025      0.000000
     1.8030      0.000000
     1.8035      0.000000
     1.8040      0.000000
     1.8045      0.000000
     1.8050      0.000000
     1.8055      0.000000
     1.8060      0.000100
     1.8065      0.000020
     1.8070      0.000280
     1.8075      0.000180
     1.8080      0.000000
     1.8085      0.000360
     1.8090      0.000560
     1.8095      0.000000
     1.8100      0.000000
     1.8105      0.000000
     1.8110      0.000570
     1.8115      0.000180
     1.8120      0.000000
     1.8125      0.000050
     1.8130      0.000580
     1.8135      0.000280
     1.8140      0.000330
     1.8145      0.000180
     1.8150      0.000180
     1.8155      0.000120
     1.8160      0.000030
     1.8165      0.000200
     1.8170      0.000100
     1.8175      0.000000
     1.8180      0.000000
     1.8185      0.000000
     1.8190      0.000000
     1.8195      0.000000
     1.8200      0.000110
     1.8205      0.000150
     1.8210      0.000500
     1.8215      0.000180
     1.8220      0.000070
     1.8225      0.000550
     1.8230      0.000000
     1.8235      0.000000
     1.8240      0.000000
     1.8245      0.000000
     1.8250      0.000000
     1.8255      0.000050
     1.8260      0.000300
     1.8265      0.000770
     1.8270      0.000510
     1.8275      0.000620
     1.8280      0.000570
     1.8285      0.000740
     1.8290      0.000390
     1.8295      0.000190
     1.8300      0.000050
     1.8305      0.000000
     1.8310      0.000120
     1.8315      0.000690
     1.8320      0.000380
     1.8325      0.000260
     1.8330      0.000320
     1.8335      0.000570
     1.8340      0.000410
     1.8345      0.000020
     1.8350      0.000000
     1.8355      0.000000
     1.8360      0.000000
     1.8365      0.000000
     1.8370      0.000160
     1.8375      0.000610
     1.8380      0.000560
     1.8385      0.000000
     1.8390      0.000130
     1.8395      0.000550
     1.8400      0.000290
     1.8405      0.000000
     1.8410      0.000000
     1.8415      0.000000
     1.8420      0.000000
     1.8425      0.000000
     1.8430      0.000000
     1.8435      0.000000
     1.8440      0.000000
     1.8445      0.000000
     1.8450      0.000000
     1.8455      0.000080
     1.8460      0.000010
     1.8465      0.000000
     1.8470      0.000000
     1.8475      0.000150
     1.8480      0.000050
     1.8485      0.000000
     1.8490      0.000050
     1.8495      0.000000
     1.8500      0.000000
     1.8505      0.000000
     1.8510      0.000020
     1.8515      0.000060
     1.8520      0.000000
     1.8525      0.000000
     1.8530      0.000000
     1.8535      0.000000
     1.8540      0.000000
     1.8545      0.000000
     1.8550      0.000130
     1.8555      0.000510
     1.8560      0.000390
     1.8565      0.000000
     1.8570      0.000020
     1.8575      0.000020
     1.8580      0.000110
     1.8585      0.000250
     1.8590      0.000000
     1.8595      0.000000
     1.8600      0.000040
     1.8605      0.000040
     1.8610      0.000080
     1.8615      0.000040
     1.8620      0.000000
     1.8625      0.000000
     1.8630      0.000160
     1.8635      0.000010
     1.8640      0.000000
     1.8645      0.000000
     1.8650      0.000000
     1.8655      0.000000
     1.8660      0.000210
     1.8665      0.000510
     1.8670      0.000000
     1.8675      0.000140
     1.8680      0.000620
     1.8685      0.000100
     1.8690      0.000170
     1.8695      0.000020
     1.8700      0.000200
     1.8705      0.000280
     1.8710      0.000000
     1.8715      0.000130
     1.8720      0.000070
     1.8725      0.000150
     1.8730      0.000020
     1.8735      0.000000
     1.8740      0.000090
     1.8745      0.000350
     1.8750      0.000050
     1.8755      0.000050
     1.8760      0.000360
     1.8765      0.000270
     1.8770      0.000050
     1.8775      0.000000
     1.8780      0.000000
     1.8785      0.000020
     1.8790      0.000000
     1.8795      0.000200
     1.8800      0.000510
     1.8805      0.000340
     1.8810      0.000360
     1.8815      0.000150
     1.8820      0.000000
     1.8825      0.000300
     1.8830      0.000080
     1.8835      0.000000
     1.8840      0.000070
     1.8845      0.000070
     1.8850      0.000020
     1.8855      0.000510
     1.8860      0.000990
     1.8865      0.000410
     1.8870      0.000000
     1.8875      0.000020
     1.8880      0.000410
     1.8885      0.000300
     1.8890      0.000160
     1.8895      0.000280
     1.8900      0.000570
     1.8905      0.000570
     1.8910      0.000070
     1.8915      0.000000
     1.8920      0.000020
     1.8925      0.000000
     1.8930      0.000030
     1.8935      0.000000
     1.8940      0.000160
     1.8945      0.000070
     1.8950      0.000120
     1.8955      0.000000
     1.8960      0.000010
     1.8965      0.000210
     1.8970      0.000100
     1.8975      0.000000
     1.8980      0.000040
     1.8985      0.000000
     1.8990      0.000140
     1.8995      0.000530
     1.9000      0.000070
     1.9005      0.000000
     1.9010      0.000000
     1.9015      0.000000
     1.9020      0.000000
     1.9025      0.000000
     1.9030      0.000000
     1.9035      0.000000
     1.9040      0.000000
     1.9045      0.000000
     1.9050      0.000230
     1.9055      0.000430
     1.9060      0.000500
     1.9065      0.000250
     1.9070      0.000010
     1.9075      0.000230
     1.9080      0.000000
     1.9085      0.000000
     1.9090      0.000020
     1.9095      0.000000
     1.9100      0.000060
     1.9105      0.000490
     1.9110      0.000000
     1.9115      0.000140
     1.9120      0.000330
     1.9125      0.000090
     1.9130      0.000510
     1.9135      0.000490
     1.9140      0.000480
     1.9145      0.000030
     1.9150      0.000000
     1.9155      0.000030
     1.9160      0.000370
     1.9165      0.000790
     1.9170      0.000570
     1.9175      0.000310
     1.9180      0.000040
     1.9185      0.000050
     1.9190      0.000070
     1.9195      0.000000
     1.9200      0.000000
     1.9205      0.000000
     1.9210      0.000000
     1.9215      0.000140
     1.9220      0.000430
     1.9225      0.000020
     1.9230      0.000000
     1.9235      0.000060
     1.9240      0.000550
     1.9245      0.000480
     1.9250      0.000340
     1.9255      0.000110
     1.9260      0.000000
     1.9265      0.000000
     1.9270      0.000000
     1.9275      0.000000
     1.9280      0.000000
     1.9285      0.000000
     1.9290      0.000000
     1.9295      0.000000
     1.9300      0.000000
     1.9305      0.000070
     1.9310      0.000510
     1.9315      0.000260
     1.9320      0.000050
     1.9325      0.000000
     1.9330      0.000080
     1.9335      0.000330
     1.9340      0.000090
     1.9345      0.000000
     1.9350      0.000000
     1.9355      0.000000
     1.9360      0.000100
     1.9365      0.000070
     1.9370      0.000000
     1.9375      0.000060
     1.9380      0.000350
     1.9385      0.000010
     1.9390      0.000000
     1.9395      0.000160
     1.9400      0.000290
     1.9405      0.000000
     1.9410      0.000000
     1.9415      0.000000
     1.9420      0.000000
     1.9425      0.000000
     1.9430      0.000230
     1.9435      0.000410
     1.9440      0.000340
     1.9445      0.000260
     1.9450      0.000130
     1.9455      0.000000
     1.9460      0.000000
     1.9465      0.000000
     1.9470      0.000020
     1.9475      0.000350
     1.9480      0.000800
     1.9485      0.000440
     1.9490      0.000500
     1.9495      0.000400
     1.9500      0.000540
     1.9505      0.000370
     1.9510      0.000000
     1.9515      0.000040
     1.9520      0.000000
     1.9525      0.000010
     1.9530      0.000040
     1.9535      0.000220
     1.9540      0.000000
     1.9545      0.000000
     1.9550      0.000110
     1.9555      0.000000
     1.9560      0.000000
     1.9565      0.000020
     1.9570      0.000180
     1.9575      0.000170
     1.9580      0.000040
     1.9585      0.000000
     1.9590      0.000000
     1.9595      0.000120
     1.9600      0.000720
     1.9605      0.000690
     1.9610      0.000200
     1.9615      0.000000
     1.9620      0.000360
     1.9625      0.000300
     1.9630      0.000270
     1.9635      0.000490
     1.9640      0.000140
     1.9645      0.000000
     1.9650      0.000000
     1.9655      0.000000
     1.9660      0.000120
     1.9665      0.000310
     1.9670      0.000290
     1.9675      0.000220
     1.9680      0.000130
     1.9685      0.000000
     1.9690      0.000000
     1.9695      0.000010
     1.9700      0.000020
     1.9705      0.000000
     1.9710      0.000010
     1.9715      0.000070
     1.9720      0.000310
     1.9725      0.000730
     1.9730      0.000500
     1.9735      0.000050
     1.9740      0.000000
     1.9745      0.000000
     1.9750      0.000310
     1.9755      0.000310
     1.9760      0.000090
     1.9765      0.000500
     1.9770      0.000390
     1.9775      0.000210
     1.9780      0.000490
     1.9785      0.000190
     1.9790      0.000130
     1.9795      0.000340
     1.9800      0.000250
     1.9805      0.000080
     1.9810      0.000030
     1.9815      0.000220
     1.9820      0.000610
     1.9825      0.000580
     1.9830      0.000280
     1.9835      0.000150
     1.9840      0.000390
     1.9845      0.000920
     1.9850      0.000700
     1.9855      0.000540
     1.9860      0.000600
     1.9865      0.000310
     1.9870      0.000270
     1.9875      0.000440
     1.9880      0.000190
     1.9885      0.000180
     1.9890      0.000400
     1.9895      0.000390
     1.9900      0.000470
     1.9905      0.000550
     1.9910      0.000630
     1.9915      0.000230
     1.9920      0.000180
     1.9925      0.000530
     1.9930      0.000510
     1.9935      0.000330
     1.9940      0.000110
     1.9945      0.000090
     1.9950      0.000020
     1.9955      0.000000
     1.9960      0.000000
     1.9965      0.000010
     1.9970      0.000010
     1.9975      0.000000
     1.9980      0.000000
     1.9985      0.000050
     1.9990      0.000010
     1.9995      0.000000
     2.0000      0.000050
     2.0005      0.000370
     2.0010      0.000450
     2.0015      0.000130
     2.0020      0.000210
     2.0025      0.000480
     2.0030      0.000540
     2.0035      0.000120
     2.0040      0.000210
     2.0045      0.000640
     2.0050      0.000270
     2.0055      0.000110
     2.0060      0.000450
     2.0065      0.000350
     2.0070      0.000430
     2.0075      0.000440
     2.0080      0.000400
     2.0085      0.000610
     2.0090      0.000340
     2.0095      0.000190
     2.0100      0.000260
     2.0105      0.000060
     2.0110      0.000050
     2.0115      0.000550
     2.0120      0.000770
     2.0125      0.000420
     2.0130      0.000480
     2.0135      0.000370
     2.0140      0.000010
     2.0145      0.000000
     2.0150      0.000030
     2.0155      0.000370
     2.0160      0.000210
     2.0165      0.000060
     2.0170      0.000020
     2.0175      0.000110
     2.0180      0.000040
     2.0185      0.000080
     2.0190      0.000630
     2.0195      0.000360
     2.0200      0.000120
     2.0205      0.000000
     2.0210      0.000000
     2.0215      0.000010
     2.0220      0.000240
     2.0225      0.000180
     2.0230      0.000290
     2.0235      0.000270
     2.0240      0.000010
     2.0245      0.000230
     2.0250      0.000110
     2.0255      0.000000
     2.0260      0.000000
     2.0265      0.000070
     2.0270      0.000250
     2.0275      0.000140
     2.0280      0.000290
     2.0285      0.000100
     2.0290      0.000040
     2.0295      0.000220
     2.0300      0.000320
     2.0305      0.000190
     2.0310      0.000050
     2.0315      0.000000
     2.0320      0.000020
     2.0325      0.000110
     2.0330      0.000000
     2.0335      0.000000
     2.0340      0.000020
     2.0345      0.000140
     2.0350      0.000320
     2.0355      0.000390
     2.0360      0.000300
     2.0365      0.000350
     2.0370      0.000400
     2.0375      0.000520
     2.0380      0.000400
     2.0385      0.000020
     2.0390      0.000220
     2.0395      0.000130
     2.0400      0.000000
     2.0405      0.000000
     2.0410      0.000090
     2.0415      0.000440
     2.0420      0.000670
     2.0425      0.000490
     2.0430      0.000520
     2.0435      0.000240
     2.0440      0.000000
     2.0445      0.000000
     2.0450      0.000000
     2.0455      0.000070
     2.0460      0.000260
     2.0465      0.000160
     2.0470      0.000060
     2.0475      0.000080
     2.0480      0.000280
     2.0485      0.000380
     2.0490      0.000420
     2.0495      0.000220
     2.0500      0.000170
     2.0505      0.000080
     2.0510      0.000040
     2.0515      0.000200
     2.0520      0.000040
     2.0525      0.000010
     2.0530      0.000150
     2.0535      0.000230
     2.0540      0.000100
     2.0545      0.000000
     2.0550      0.000210
     2.0555      0.000120
     2.0560      0.000000
     2.0565      0.000000
     2.0570      0.000050
     2.0575      0.000100
     2.0580      0.000000
     2.0585      0.000020
     2.0590      0.000010
     2.0595      0.000000
     2.0600      0.000000
     2.0605      0.000230
     2.0610      0.000150
     2.0615      0.000000
     2.0620      0.000010
     2.0625      0.000020
     2.0630      0.000000
     2.0635      0.000000
     2.0640      0.000000
     2.0645      0.000020
     2.0650      0.000080
     2.0655      0.000010
     2.0660      0.000060
     2.0665      0.000160
     2.0670      0.000020
     2.0675      0.000160
     2.0680      0.000410
     2.0685      0.000390
     2.0690      0.000160
     2.0695      0.000180
     2.0700      0.000340
     2.0705      0.000150
     2.0710      0.000000
     2.0715      0.000000
     2.0720      0.000230
     2.0725      0.000650
     2.0730      0.000670
     2.0735      0.000310
     2.0740      0.000180
     2.0745      0.000070
     2.0750      0.000000
     2.0755      0.000000
     2.0760      0.000000
     2.0765      0.000000
     2.0770      0.000000
     2.0775      0.000000
     2.0780      0.000000
     2.0785      0.000000
     2.0790      0.000180
     2.0795      0.000490
     2.0800      0.000370
     2.0805      0.000130
     2.0810      0.000060
     2.0815      0.000000
     2.0820      0.000000
     2.0825      0.000000
     2.0830      0.000000
     2.0835      0.000120
     2.0840      0.000520
     2.0845      0.000220
     2.0850      0.000010
     2.0855      0.000000
     2.0860      0.000000
     2.0865      0.000050
     2.0870      0.000350
     2.0875      0.000440
     2.0880      0.000040
     2.0885      0.000000
     2.0890      0.000030
     2.0895      0.000300
     2.0900      0.000600
     2.0905      0.000170
     2.0910      0.000000
     2.0915      0.000110
     2.0920      0.000290
     2.0925      0.000340
     2.0930      0.000200
     2.0935      0.000000
     2.0940      0.000000
     2.0945      0.000000
     2.0950      0.000000
     2.0955      0.000000
     2.0960      0.000010
     2.0965      0.000090
     2.0970      0.000130
     2.0975      0.000150
     2.0980      0.000130
     2.0985      0.000310
     2.0990      0.000410
     2.0995      0.000000
     2.1000      0.000050
     2.1005      0.000310
     2.1010      0.000570
     2.1015      0.000450
     2.1020      0.000110
     2.1025      0.000000
     2.1030      0.000070
     2.1035      0.000210
     2.1040      0.000240
     2.1045      0.000660
     2.1050      0.000850
     2.1055      0.000330
     2.1060      0.000000
     2.1065      0.000000
     2.1070      0.000000
     2.1075      0.000380
     2.1080      0.000510
     2.1085      0.000260
     2.1090      0.000060
     2.1095      0.000010
     2.1100      0.000000
     2.1105      0.000060
     2.1110      0.000640
     2.1115      0.000800
     2.1120      0.000410
     2.1125      0.000080
     2.1130      0.000000
     2.1135      0.000000
     2.1140      0.000180
     2.1145      0.000450
     2.1150      0.000380
     2.1155      0.000320
     2.1160      0.000200
     2.1165      0.000260
     2.1170      0.000620
     2.1175      0.000480
     2.1180      0.000240
     2.1185      0.000490
     2.1190      0.000480
     2.1195      0.000200
     2.1200      0.000260
     2.1205      0.000210
     2.1210      0.000240
     2.1215      0.000120
     2.1220      0.000000
     2.1225      0.000090
     2.1230      0.000230
     2.1235      0.000190
     2.1240      0.000320
     2.1245      0.000360
     2.1250      0.000120
     2.1255      0.000130
     2.1260      0.000460
     2.1265      0.000490
     2.1270      0.000320
     2.1275      0.000200
     2.1280      0.000090
     2.1285      0.000000
     2.1290      0.000000
     2.1295      0.000300
     2.1300      0.000310
     2.1305      0.000150
     2.1310      0.000540
     2.1315      0.000520
     2.1320      0.000130
     2.1325      0.000000
     2.1330      0.000000
     2.1335      0.000000
     2.1340      0.000030
     2.1345      0.000000
     2.1350      0.000000
     2.1355      0.000000
     2.1360      0.000000
     2.1365      0.000000
     2.1370      0.000000
     2.1375      0.000000
     2.1380      0.000000
     2.1385      0.000000
     2.1390      0.000000
     2.1395      0.000210
     2.1400      0.000220
     2.1405      0.000030
     2.1410      0.000000
     2.1415      0.000000
     2.1420      0.000110
     2.1425      0.000000
     2.1430      0.000090
     2.1435      0.000250
     2.1440      0.000180
     2.1445      0.000090
     2.1450      0.000010
     2.1455      0.000000
     2.1460      0.000060
     2.1465      0.000330
     2.1470      0.000220
     2.1475      0.000100
     2.1480      0.000160
     2.1485      0.000380
     2.1490      0.000340
     2.1495      0.000250
     2.1500      0.000170
     2.1505      0.000000
     2.1510      0.000000
     2.1515      0.000000
     2.1520      0.000000
     2.1525      0.000000
     2.1530      0.000000
     2.1535      0.000120
     2.1540      0.000220
     2.1545      0.000230
     2.1550      0.000160
     2.1555      0.000290
     2.1560      0.000580
     2.1565      0.000380
     2.1570      0.000270
     2.1575      0.000300
     2.1580      0.000000
     2.1585      0.000000
     2.1590      0.000000
     2.1595      0.000070
     2.1600      0.000170
     2.1605      0.000060
     2.1610      0.000000
     2.1615      0.000000
     2.1620      0.000000
     2.1625      0.000160
     2.1630      0.000510
     2.1635      0.000550
     2.1640      0.000510
     2.1645      0.000280
     2.1650      0.000010
     2.1655      0.000000
     2.1660      0.000060
     2.1665      0.000230
     2.1670      0.000180
     2.1675      0.000000
     2.1680      0.000000
     2.1685      0.000070
     2.1690      0.000110
     2.1695      0.000000
     2.1700      0.000200
     2.1705      0.000440
     2.1710      0.000210
     2.1715      0.000010
     2.1720      0.000000
     2.1725      0.000030
     2.1730      0.000080
     2.1735      0.000000
     2.1740      0.000000
     2.1745      0.000000
     2.1750      0.000000
     2.1755      0.000000
     2.1760      0.000050
     2.1765      0.000010
     2.1770      0.000060
     2.1775      0.000090
     2.1780      0.000000
     2.1785      0.000000
     2.1790      0.000000
     2.1795      0.000000
     2.1800      0.000040
     2.1805      0.000160
     2.1810      0.000280
     2.1815      0.000540
     2.1820      0.000250
     2.1825      0.000000
     2.1830      0.000020
     2.1835      0.000300
     2.1840      0.000470
     2.1845      0.000320
     2.1850      0.000080
     2.1855      0.000000
     2.1860      0.000110
     2.1865      0.000060
     2.1870      0.000000
     2.1875      0.000000
     2.1880      0.000000
     2.1885      0.000000
     2.1890      0.000020
     2.1895      0.000150
     2.1900      0.000000
     2.1905      0.000130
     2.1910      0.000540
     2.1915      0.000600
     2.1920      0.000470
     2.1925      0.000480
     2.1930      0.000270
     2.1935      0.000320
     2.1940      0.000630
     2.1945      0.000330
     2.1950      0.000000
     2.1955      0.000000
     2.1960      0.000000
     2.1965      0.000090
     2.1970      0.000260
     2.1975      0.000140
     2.1980      0.000220
     2.1985      0.000120
     2.1990      0.000000
     2.1995      0.000000
     2.2000      0.000000
     2.2005      0.000000
     2.2010      0.000000
     2.2015      0.000000
     2.2020      0.000000
     2.2025      0.000000
     2.2030      0.000070
     2.2035      0.000220
     2.2040      0.000060
     2.2045      0.000000
     2.2050      0.000050
     2.2055      0.000140
     2.2060      0.000070
     2.2065      0.000000
     2.2070      0.000000
     2.2075      0.000090
     2.2080      0.000320
     2.2085      0.000310
     2.2090      0.000200
     2.2095      0.000560
     2.2100      0.000450
     2.2105      0.000000
     2.2110      0.000000
     2.2115      0.000040
     2.2120      0.000150
     2.2125      0.000240
     2.2130      0.000180
     2.2135      0.000000
     2.2140      0.000180
     2.2145      0.000690
     2.2150      0.000630
     2.2155      0.000350
     2.2160      0.000380
     2.2165      0.000050
     2.2170      0.000000
     2.2175      0.000000
     2.2180      0.000360
     2.2185      0.000020
     2.2190      0.000000
     2.2195      0.000000
     2.2200      0.000000
     2.2205      0.000080
     2.2210      0.000170
     2.2215      0.000000
     2.2220      0.000110
     2.2225      0.000170
     2.2230      0.000040
     2.2235      0.000000
     2.2240      0.000000
     2.2245      0.000000
     2.2250      0.000000
     2.2255      0.000000
     2.2260      0.000000
     2.2265      0.000000
     2.2270      0.000000
     2.2275      0.000000
     2.2280      0.000000
     2.2285      0.000000
     2.2290      0.000000
     2.2295      0.000000
     2.2300      0.000000
     2.2305      0.000000
     2.2310      0.000000
     2.2315      0.000000
     2.2320      0.000000
     2.2325      0.000000
     2.2330      0.000000
     2.2335      0.000000
     2.2340      0.000000
     2.2345      0.000000
     2.2350      0.000120
     2.2355      0.000070
     2.2360      0.000000
     2.2365      0.000000
     2.2370      0.000000
     2.2375      0.000000
     2.2380      0.000030
     2.2385      0.000150
     2.2390      0.000190
     2.2395      0.000020
     2.2400      0.000000
     2.2405      0.000000
     2.2410      0.000000
     2.2415      0.000220
     2.2420      0.000280
     2.2425      0.000000
     2.2430      0.000040
     2.2435      0.000390
     2.2440      0.000680
     2.2445      0.000190
     2.2450      0.000000
     2.2455      0.000000
     2.2460      0.000000
     2.2465      0.000000
     2.2470      0.000000
     2.2475      0.000000
     2.2480      0.000000
     2.2485      0.000000
     2.2490      0.000000
     2.2495      0.000000
     2.2500      0.000000
     2.2505      0.000000
     2.2510      0.000000
     2.2515      0.000000
     2.2520      0.000000
     2.2525      0.000000
     2.2530      0.000000
     2.2535      0.000000
     2.2540      0.000000
     2.2545      0.000000
     2.2550      0.000000
     2.2555      0.000000
     2.2560      0.000000
     2.2565      0.000000
     2.2570      0.000050
     2.2575      0.000160
     2.2580      0.000200
     2.2585      0.000460
     2.2590      0.000450
     2.2595      0.000350
     2.2600      0.000810
     2.2605      0.001060
     2.2610      0.000470
     2.2615      0.000020
     2.2620      0.000000
     2.2625      0.000450
     2.2630      0.000160
     2.2635      0.000000
     2.2640      0.000230
     2.2645      0.000080
     2.2650      0.000230
     2.2655      0.000410
     2.2660      0.000060
     2.2665      0.000000
     2.2670      0.000000
     2.2675      0.000000
     2.2680      0.000000
     2.2685      0.000000
     2.2690      0.000000
     2.2695      0.000000
     2.2700      0.000000
     2.2705      0.000000
     2.2710      0.000000
     2.2715      0.000000
     2.2720      0.000020
     2.2725      0.000170
     2.2730      0.000270
     2.2735      0.000000
     2.2740      0.000000
     2.2745      0.000000
     2.2750      0.000000
     2.2755      0.000040
     2.2760      0.000230
     2.2765      0.000310
     2.2770      0.000350
     2.2775      0.000330
     2.2780      0.000330
     2.2785      0.000340
     2.2790      0.000370
     2.2795      0.000420
     2.2800      0.000260
     2.2805      0.000000
     2.2810      0.000000
     2.2815      0.000030
     2.2820      0.000270
     2.2825      0.000590
     2.2830      0.000340
     2.2835      0.000030
     2.2840      0.000260
     2.2845      0.000510
     2.2850      0.000370
     2.2855      0.000330
     2.2860      0.000500
     2.2865      0.000370
     2.2870      0.000060
     2.2875      0.000120
     2.2880      0.000320
     2.2885      0.000130
     2.2890      0.000000
     2.2895      0.000000
     2.2900      0.000000
     2.2905      0.000000
     2.2910      0.000000
     2.2915      0.000000
     2.2920      0.000000
     2.2925      0.000000
     2.2930      0.000000
     2.2935      0.000000
     2.2940      0.000000
     2.2945      0.000000
     2.2950      0.000000
     2.2955      0.000000
     2.2960      0.000000
     2.2965      0.000000
     2.2970      0.000130
     2.2975      0.000360
     2.2980      0.000350
     2.2985      0.000080
     2.2990      0.000020
     2.2995      0.000400
     2.3000      0.000650
     2.3005      0.000580
     2.3010      0.000480
     2.3015      0.000420
     2.3020      0.000150
     2.3025      0.000000
     2.3030      0.000000
     2.3035      0.000000
     2.3040      0.000000
     2.3045      0.000000
     2.3050      0.000000
     2.3055      0.000000
     2.3060      0.000000
     2.3065      0.000000
     2.3070      0.000000
     2.3075      0.000000
     2.3080      0.000000
     2.3085      0.000010
     2.3090      0.000030
     2.3095      0.000090
     2.3100      0.000370
     2.3105      0.000350
     2.3110      0.000040
     2.3115      0.000000
     2.3120      0.000000
     2.3125      0.000000
     2.3130      0.000000
     2.3135      0.000010
     2.3140      0.000530
     2.3145      0.000480
     2.3150      0.000040
     2.3155      0.000000
     2.3160      0.000000
     2.3165      0.000000
     2.3170      0.000000
     2.3175      0.000000
     2.3180      0.000100
     2.3185      0.000200
     2.3190      0.000140
     2.3195      0.000040
     2.3200      0.000140
     2.3205      0.000360
     2.3210      0.000260
     2.3215      0.000070
     2.3220      0.000070
     2.3225      0.000030
     2.3230      0.000140
     2.3235      0.000350
     2.3240      0.000180
     2.3245      0.000010
     2.3250      0.000120
     2.3255      0.000400
     2.3260      0.000300
     2.3265      0.000070
     2.3270      0.000050
     2.3275      0.000130
     2.3280      0.000010
     2.3285      0.000000
     2.3290      0.000000
     2.3295      0.000000
     2.3300      0.000000
     2.3305      0.000000
     2.3310      0.000000
     2.3315      0.000000
     2.3320      0.000000
     2.3325      0.000260
     2.3330      0.000370
     2.3335      0.000140
     2.3340      0.000000
     2.3345      0.000000
     2.3350      0.000020
     2.3355      0.000070
     2.3360      0.000110
     2.3365      0.000010
     2.3370      0.000000
     2.3375      0.000000
     2.3380      0.000000
     2.3385      0.000000
     2.3390      0.000000
     2.3395      0.000000
     2.3400      0.000000
     2.3405      0.000000
     2.3410      0.000000
     2.3415      0.000000
     2.3420      0.000000
     2.3425      0.000000
     2.3430      0.000000
     2.3435      0.000060
     2.3440      0.000110
     2.3445      0.000000
     2.3450      0.000000
     2.3455      0.000000
     2.3460      0.000000
     2.3465      0.000000
     2.3470      0.000000
     2.3475      0.000000
     2.3480      0.000000
     2.3485      0.000000
     2.3490      0.000000
     2.3495      0.000060
     2.3500      0.000060
     2.3505      0.000020
     2.3510      0.000000
     2.3515      0.000150
     2.3520      0.000300
     2.3525      0.000220
     2.3530      0.000120
     2.3535      0.000030
     2.3540      0.000000
     2.3545      0.000000
     2.3550      0.000000
     2.3555      0.000110
     2.3560      0.000250
     2.3565      0.000300
     2.3570      0.000330
     2.3575      0.000110
     2.3580      0.000000
     2.3585      0.000000
     2.3590      0.000030
     2.3595      0.000220
     2.3600      0.000580
     2.3605      0.000730
     2.3610      0.000440
     2.3615      0.000000
     2.3620      0.000010
     2.3625      0.000140
     2.3630      0.000010
     2.3635      0.000000
     2.3640      0.000000
     2.3645      0.000000
     2.3650      0.000140
     2.3655      0.000300
     2.3660      0.000260
     2.3665      0.000130
     2.3670      0.000100
     2.3675      0.000120
     2.3680      0.000150
     2.3685      0.000010
     2.3690      0.000000
     2.3695      0.000000
     2.3700      0.000000
     2.3705      0.000200
     2.3710      0.000310
     2.3715      0.000300
     2.3720      0.000330
     2.3725      0.000360
     2.3730      0.000320
     2.3735      0.000180
     2.3740      0.000060
     2.3745      0.000130
     2.3750      0.000330
     2.3755      0.000210
     2.3760      0.000090
     2.3765      0.000320
     2.3770      0.000540
     2.3775      0.000600
     2.3780      0.000490
     2.3785      0.000210
     2.3790      0.000000
     2.3795      0.000000
     2.3800      0.000010
     2.3805      0.000020
     2.3810      0.000000
     2.3815      0.000000
     2.3820      0.000000
     2.3825      0.000000
     2.3830      0.000070
     2.3835      0.000040
     2.3840      0.000040
     2.3845      0.000110
     2.3850      0.000100
     2.3855      0.000000
     2.3860      0.000000
     2.3865      0.000000
     2.3870      0.000000
     2.3875      0.000000
     2.3880      0.000000
     2.3885      0.000000
     2.3890      0.000020
     2.3895      0.000200
     2.3900      0.000480
     2.3905      0.000650
     2.3910      0.000540
     2.3915      0.000210
     2.3920      0.000090
     2.3925      0.000060
     2.3930      0.000010
     2.3935      0.000000
     2.3940      0.000000
     2.3945      0.000220
     2.3950      0.000440
     2.3955      0.000640
     2.3960      0.000710
     2.3965      0.000440
     2.3970      0.000000
     2.3975      0.000000
     2.3980      0.000000
     2.3985      0.000000
     2.3990      0.000140
     2.3995      0.000430
     2.4000      0.000390
     2.4005      0.000270
     2.4010      0.000390
     2.4015      0.000550
     2.4020      0.000420
     2.4025      0.000310
     2.4030      0.000400
     2.4035      0.000390
     2.4040      0.000470
     2.4045      0.000590
     2.4050      0.000380
     2.4055      0.000090
     2.4060      0.000040
     2.4065      0.000140
     2.4070      0.000230
     2.4075      0.000250
     2.4080      0.000210
     2.4085      0.000040
     2.4090      0.000000
     2.4095      0.000090
     2.4100      0.000290
     2.4105      0.000500
     2.4110      0.000510
     2.4115      0.000290
     2.4120      0.000000
     2.4125      0.000000
     2.4130      0.000200
     2.4135      0.000320
     2.4140      0.000170
     2.4145      0.000020
     2.4150      0.000010
     2.4155      0.000090
     2.4160      0.000220
     2.4165      0.000100
     2.4170      0.000010
     2.4175      0.000000
     2.4180      0.000220
     2.4185      0.000280
     2.4190      0.000210
     2.4195      0.000190
     2.4200      0.000270
     2.4205      0.000310
     2.4210      0.000250
     2.4215      0.000180
     2.4220      0.000400
     2.4225      0.000520
     2.4230      0.000470
     2.4235      0.000470
     2.4240      0.000490
     2.4245      0.000350
     2.4250      0.000220
     2.4255      0.000300
     2.4260      0.000170
     2.4265      0.000040
     2.4270      0.000000
     2.4275      0.000000
     2.4280      0.000040
     2.4285      0.000150
     2.4290      0.000270
     2.4295      0.000090
     2.4300      0.000010
     2.4305      0.000000
     2.4310      0.000000
     2.4315      0.000000
     2.4320      0.000000
     2.4325      0.000000
     2.4330      0.000000
     2.4335      0.000000
     2.4340      0.000000
     2.4345      0.000020
     2.4350      0.000010
     2.4355      0.000000
     2.4360      0.000000
     2.4365      0.000000
     2.4370      0.000070
     2.4375      0.000420
     2.4380      0.000320
     2.4385      0.000210
     2.4390      0.000140
     2.4395      0.000060
     2.4400      0.000000
     2.4405      0.000080
     2.4410      0.000340
     2.4415      0.000380
     2.4420      0.000050
     2.4425      0.000000
     2.4430      0.000000
     2.4435      0.000000
     2.4440      0.000000
     2.4445      0.000070
     2.4450      0.000410
     2.4455      0.001120
     2.4460      0.000880
     2.4465      0.000270
     2.4470      0.000000
     2.4475      0.000000
     2.4480      0.000000
     2.4485      0.000000
     2.4490      0.000000
     2.4495      0.000000
     2.4500      0.000000
     2.4505      0.000000
     2.4510      0.000000
     2.4515      0.000000
     2.4520      0.000000
     2.4525      0.000000
     2.4530      0.000000
     2.4535      0.000260
     2.4540      0.000500
     2.4545      0.000480
     2.4550      0.000310
     2.4555      0.000290
     2.4560      0.000530
     2.4565      0.000570
     2.4570      0.000400
     2.4575      0.000410
     2.4580      0.000480
     2.4585      0.000480
     2.4590      0.000390
     2.4595      0.000320
     2.4600      0.000260
     2.4605      0.000180
     2.4610      0.000130
     2.4615      0.000100
     2.4620      0.000050
     2.4625      0.000000
     2.4630      0.000000
     2.4635      0.000020
     2.4640      0.000390
     2.4645      0.000500
     2.4650      0.000350
     2.4655      0.000130
     2.4660      0.000000
     2.4665      0.000000
     2.4670      0.000100
     2.4675      0.000180
     2.4680      0.000080
     2.4685      0.000000
     2.4690      0.000000
     2.4695      0.000000
     2.4700      0.000000
     2.4705      0.000160
     2.4710      0.000350
     2.4715      0.000310
     2.4720      0.000260
     2.4725      0.000380
     2.4730      0.000560
     2.4735      0.000580
     2.4740      0.000260
     2.4745      0.000060
     2.4750      0.000000
     2.4755      0.000000
     2.4760      0.000040
     2.4765      0.000200
     2.4770      0.000220
     2.4775      0.000260
     2.4780      0.000290
     2.4785      0.000180
     2.4790      0.000000
     2.4795      0.000010
     2.4800      0.000110
     2.4805      0.000110
     2.4810      0.000210
     2.4815      0.000340
     2.4820      0.000310
     2.4825      0.000050
     2.4830      0.000000
     2.4835      0.000000
     2.4840      0.000000
     2.4845      0.000000
     2.4850      0.000000
     2.4855      0.000000
     2.4860      0.000000
     2.4865      0.000000
     2.4870      0.000000
     2.4875      0.000000
     2.4880      0.000000
     2.4885      0.000040
     2.4890      0.000210
     2.4895      0.000280
     2.4900      0.000290
     2.4905      0.000320
     2.4910      0.000420
     2.4915      0.000600
     2.4920      0.000770
     2.4925      0.000520
     2.4930      0.000210
     2.4935      0.000220
     2.4940      0.000420
     2.4945      0.000560
     2.4950      0.000450
     2.4955      0.000340
     2.4960      0.000370
     2.4965      0.000480
     2.4970      0.000530
     2.4975      0.000460
     2.4980      0.000290
     2.4985      0.000270
     2.4990      0.000520
     2.4995      0.000830
     2.5000      0.000960
     2.5005      0.000850
     2.5010      0.000670
     2.5015      0.000500
     2.5020      0.000390
     2.5025      0.000560
     2.5030      0.000800
     2.5035      0.000790
     2.5040      0.000310
     2.5045      0.000060
     2.5050      0.000000
     2.5055      0.000030
     2.5060      0.000100
     2.5065      0.000170
     2.5070      0.000060
     2.5075      0.000020
     2.5080      0.000100
     2.5085      0.000180
     2.5090      0.000190
     2.5095      0.000110
     2.5100      0.000150
     2.5105      0.000290
     2.5110      0.000340
     2.5115      0.000380
     2.5120      0.000470
     2.5125      0.000480
     2.5130      0.000280
     2.5135      0.000220
     2.5140      0.000160
     2.5145      0.000080
     2.5150      0.000000
     2.5155      0.000000
     2.5160      0.000030
     2.5165      0.000330
     2.5170      0.000520
     2.5175      0.000370
     2.5180      0.000000
     2.5185      0.000000
     2.5190      0.000000
     2.5195      0.000000
     2.5200      0.000000
     2.5205      0.000000
     2.5210      0.000000
     2.5215      0.000110
     2.5220      0.000070
     2.5225      0.000010
     2.5230      0.000100
     2.5235      0.000440
     2.5240      0.000430
     2.5245      0.000160
     2.5250      0.000000
     2.5255      0.000070
     2.5260      0.000300
     2.5265      0.000500
     2.5270      0.000380
     2.5275      0.000280
     2.5280      0.000270
     2.5285      0.000330
     2.5290      0.000470
     2.5295      0.000600
     2.5300      0.000550
     2.5305      0.000460
     2.5310      0.000480
     2.5315      0.000710
     2.5320      0.000820
     2.5325      0.000780
     2.5330      0.000570
     2.5335      0.000260
     2.5340      0.000000
     2.5345      0.000000
     2.5350      0.000000
     2.5355      0.000070
     2.5360      0.000230
     2.5365      0.000400
     2.5370      0.000170
     2.5375      0.000100
     2.5380      0.000250
     2.5385      0.000490
     2.5390      0.000640
     2.5395      0.000530
     2.5400      0.000450
     2.5405      0.000490
     2.5410      0.000540
     2.5415      0.000470
     2.5420      0.000510
     2.5425      0.000740
     2.5430      0.000690
     2.5435      0.000450
     2.5440      0.000210
     2.5445      0.000110
     2.5450      0.000030
     2.5455      0.000000
     2.5460      0.000000
     2.5465      0.000000
     2.5470      0.000000
     2.5475      0.000000
     2.5480      0.000000
     2.5485      0.000000
     2.5490      0.000020
     2.5495      0.000210
     2.5500      0.000230
     2.5505      0.000170
     2.5510      0.000110
     2.5515      0.000080
     2.5520      0.000010
     2.5525      0.000020
     2.5530      0.000070
     2.5535      0.000090
     2.5540      0.000000
     2.5545      0.000000
     2.5550      0.000090
     2.5555      0.000310
     2.5560      0.000460
     2.5565      0.000260
     2.5570      0.000050
     2.5575      0.000070
     2.5580      0.000210
     2.5585      0.000310
     2.5590      0.000220
     2.5595      0.000190
     2.5600      0.000080
     2.5605      0.000000
     2.5610      0.000000
     2.5615      0.000000
     2.5620      0.000000
     2.5625      0.000000
     2.5630      0.000070
     2.5635      0.000250
     2.5640      0.000520
     2.5645      0.000420
     2.5650      0.000210
     2.5655      0.000030
     2.5660      0.000000
     2.5665      0.000000
     2.5670      0.000180
     2.5675      0.000300
     2.5680      0.000270
     2.5685      0.000010
     2.5690      0.000000
     2.5695      0.000000
     2.5700      0.000040
     2.5705      0.000140
     2.5710      0.000280
     2.5715      0.000420
     2.5720      0.000480
     2.5725      0.000460
     2.5730      0.000340
     2.5735      0.000160
     2.5740      0.000260
     2.5745      0.000440
     2.5750      0.000480
     2.5755      0.000030
     2.5760      0.000000
     2.5765      0.000010
     2.5770      0.000110
     2.5775      0.000350
     2.5780      0.000410
     2.5785      0.000300
     2.5790      0.000180
     2.5795      0.000150
     2.5800      0.000280
     2.5805      0.000130
     2.5810      0.000110
     2.5815      0.000210
     2.5820      0.000360
     2.5825      0.000300
     2.5830      0.000370
     2.5835      0.000320
     2.5840      0.000160
     2.5845      0.000010
     2.5850      0.000140
     2.5855      0.000360
     2.5860      0.000630
     2.5865      0.000840
     2.5870      0.000530
     2.5875      0.000280
     2.5880      0.000490
     2.5885      0.000980
     2.5890      0.001000
     2.5895      0.000310
     2.5900      0.000090
     2.5905      0.000280
     2.5910      0.000680
     2.5915      0.000890
     2.5920      0.001050
     2.5925      0.000980
     2.5930      0.000620
     2.5935      0.000070
     2.5940      0.000080
     2.5945      0.000340
     2.5950      0.000530
     2.5955      0.000200
     2.5960      0.000050
     2.5965      0.000060
     2.5970      0.000180
     2.5975      0.000340
     2.5980      0.000350
     2.5985      0.000360
     2.5990      0.000380
     2.5995      0.000420
     2.6000      0.000550
     2.6005      0.000940
     2.6010      0.001300
     2.6015      0.001490
     2.6020      0.001360
     2.6025      0.001190
     2.6030      0.000990
     2.6035      0.000760
     2.6040      0.000520
     2.6045      0.000510
     2.6050      0.000800
     2.6055      0.001110
     2.6060      0.001270
     2.6065      0.001340
     2.6070      0.001480
     2.6075      0.001510
     2.6080      0.001420
     2.6085      0.001430
     2.6090      0.001610
     2.6095      0.001740
     2.6100      0.001790
     2.6105      0.001770
     2.6110      0.001650
     2.6115      0.001680
     2.6120      0.001880
     2.6125      0.002210
     2.6130      0.002150
     2.6135      0.002190
     2.6140      0.002300
     2.6145      0.002410
     2.6150      0.002120
     2.6155      0.001920
     2.6160      0.001880
     2.6165      0.002080
     2.6170      0.002340
     2.6175      0.002400
     2.6180      0.002440
     2.6185      0.002570
     2.6190      0.002810
     2.6195      0.002750
     2.6200      0.002650
     2.6205      0.002670
     2.6210      0.002930
     2.6215      0.003080
     2.6220      0.003200
     2.6225      0.003290
     2.6230      0.003260
     2.6235      0.003160
     2.6240      0.003070
     2.6245      0.003040
     2.6250      0.003210
     2.6255      0.003510
     2.6260      0.003540
     2.6265      0.003320
     2.6270      0.003350
     2.6275      0.003790
     2.6280      0.004120
     2.6285      0.004220
     2.6290      0.004100
     2.6295      0.004020
     2.6300      0.004010
     2.6305      0.004080
     2.6310      0.004250
     2.6315      0.004300
     2.6320      0.004430
     2.6325      0.004700
     2.6330      0.005120
     2.6335      0.005340
     2.6340      0.005440
     2.6345      0.005460
     2.6350      0.005460
     2.6355      0.005540
     2.6360      0.005700
     2.6365      0.005920
     2.6370      0.006040
     2.6375      0.006200
     2.6380      0.006480
     2.6385      0.006860
     2.6390      0.007040
     2.6395      0.007110
     2.6400      0.007130
     2.6405      0.007130
     2.6410      0.006950
     2.6415      0.006940
     2.6420      0.007130
     2.6425      0.007530
     2.6430      0.007810
     2.6435      0.008020
     2.6440      0.008210
     2.6445      0.008400
     2.6450      0.008600
     2.6455      0.008760
     2.6460      0.008940
     2.6465      0.009200
     2.6470      0.009960
     2.6475      0.010640
     2.6480      0.011080
     2.6485      0.010960
     2.6490      0.010990
     2.6495      0.011400
     2.6500      0.012130
     2.6505      0.012980
     2.6510      0.013600
     2.6515      0.014100
     2.6520      0.014540
     2.6525      0.015010
     2.6530      0.015430
     2.6535      0.015810
     2.6540      0.016170
     2.6545      0.016680
     2.6550      0.017270
     2.6555      0.017830
     2.6560      0.018270
     2.6565      0.018850
     2.6570      0.019420
     2.6575      0.020000
     2.6580      0.020580
     2.6585      0.021830
     2.6590      0.023200
     2.6595      0.024420
     2.6600      0.024740
     2.6605      0.025330
     2.6610      0.026320
     2.6615      0.027710
     2.6620      0.028390
     2.6625      0.028850
     2.6630      0.029500
     2.6635      0.030730
     2.6640      0.032770
     2.6645      0.034580
     2.6650      0.035970
     2.6655      0.036500
     2.6660      0.038040
     2.6665      0.039590
     2.6670      0.040820
     2.6675      0.040770
     2.6680      0.041740
     2.6685      0.043330
     2.6690      0.045360
     2.6695      0.048350
     2.6700      0.051210
     2.6705      0.053200
     2.6710      0.052720
     2.6715      0.053490
     2.6720      0.055040
     2.6725      0.057150
     2.6730      0.058780
     2.6735      0.060530
     2.6740      0.062440
     2.6745      0.064580
     2.6750      0.067030
     2.6755      0.069850
     2.6760      0.072820
     2.6765      0.075470
     2.6770      0.077080
     2.6775      0.078520
     2.6780      0.080120
     2.6785      0.083300
     2.6790      0.086100
     2.6795      0.088220
     2.6800      0.089200
     2.6805      0.091210
     2.6810      0.093520
     2.6815      0.096100
     2.6820      0.099150
     2.6825      0.102700
     2.6830      0.105810
     2.6835      0.107890
     2.6840      0.109490
     2.6845      0.111450
     2.6850      0.113860
     2.6855      0.117010
     2.6860      0.119790
     2.6865      0.121820
     2.6870      0.122970
     2.6875      0.125160
     2.6880      0.127900
     2.6885      0.130760
     2.6890      0.133010
     2.6895      0.135190
     2.6900      0.137650
     2.6905      0.140470
     2.6910      0.143260
     2.6915      0.145650
     2.6920      0.148180
     2.6925      0.151720
     2.6930      0.156390
     2.6935      0.159580
     2.6940      0.160850
     2.6945      0.162270
     2.6950      0.164820
     2.6955      0.167220
     2.6960      0.167660
     2.6965      0.168180
     2.6970      0.169510
     2.6975      0.171750
     2.6980      0.173800
     2.6985      0.175710
     2.6990      0.177600
     2.6995      0.179670
     2.7000      0.182900
     2.7005      0.186090
     2.7010      0.188880
     2.7015      0.188840
     2.7020      0.189190
     2.7025      0.190020
     2.7030      0.191750
     2.7035      0.193500
     2.7040      0.195390
     2.7045      0.197480
     2.7050      0.199470
     2.7055      0.201090
     2.7060      0.202440
     2.7065      0.203800
     2.7070      0.205890
     2.7075      0.208930
     2.7080      0.213380
     2.7085      0.217030
     2.7090      0.218760
     2.7095      0.218960
     2.7100      0.221910
     2.7105      0.224890
     2.7110      0.226390
     2.7115      0.223590
     2.7120      0.222790
     2.7125      0.223360
     2.7130      0.225290
     2.7135      0.226660
     2.7140      0.227910
     2.7145      0.229160
     2.7150      0.230790
     2.7155      0.232700
     2.7160      0.234880
     2.7165      0.237450
     2.7170      0.239850
     2.7175      0.241730
     2.7180      0.243090
     2.7185      0.245550
     2.7190      0.250140
     2.7195      0.256230
     2.7200      0.263150
     2.7205      0.264060
     2.7210      0.262030
     2.7215      0.257820
     2.7220      0.256800
     2.7225      0.258540
     2.7230      0.262960
     2.7235      0.268880
     2.7240      0.271600
     2.7245      0.272200
     2.7250      0.271880
     2.7255      0.271550
     2.7260      0.271080
     2.7265      0.270360
     2.7270      0.271270
     2.7275      0.272730
     2.7280      0.274630
     2.7285      0.276390
     2.7290      0.278180
     2.7295      0.279980
     2.7300      0.281650
     2.7305      0.283550
     2.7310      0.285620
     2.7315      0.287920
     2.7320      0.289960
     2.7325      0.291760
     2.7330      0.293270
     2.7335      0.297240
     2.7340      0.301950
     2.7345      0.306780
     2.7350      0.306010
     2.7355      0.305120
     2.7360      0.304750
     2.7365      0.306860
     2.7370      0.310520
     2.7375      0.315510
     2.7380      0.322400
     2.7385      0.328560
     2.7390      0.332800
     2.7395      0.334450
     2.7400      0.334070
     2.7405      0.334270
     2.7410      0.335010
     2.7415      0.334420
     2.7420      0.332290
     2.7425      0.329670
     2.7430      0.329400
     2.7435      0.330910
     2.7440      0.333130
     2.7445      0.335360
     2.7450      0.337070
     2.7455      0.338380
     2.7460      0.339230
     2.7465      0.340510
     2.7470      0.341950
     2.7475      0.343520
     2.7480      0.345020
     2.7485      0.346420
     2.7490      0.347680
     2.7495      0.348420
     2.7500      0.350210
     2.7505      0.352880
     2.7510      0.356810
     2.7515      0.358640
     2.7520      0.359150
     2.7525      0.358350
     2.7530      0.359660
     2.7535      0.362830
     2.7540      0.368710
     2.7545      0.376350
     2.7550      0.380850
     2.7555      0.380030
     2.7560      0.374290
     2.7565      0.369930
     2.7570      0.367600
     2.7575      0.367530
     2.7580      0.367530
     2.7585      0.367620
     2.7590      0.368200
     2.7595      0.369060
     2.7600      0.370160
     2.7605      0.371500
     2.7610      0.374240
     2.7615      0.377780
     2.7620      0.381680
     2.7625      0.382900
     2.7630      0.382740
     2.7635      0.381580
     2.7640      0.379850
     2.7645      0.378440
     2.7650      0.378190
     2.7655      0.379700
     2.7660      0.381270
     2.7665      0.382220
     2.7670      0.384390
     2.7675      0.385530
     2.7680      0.384820
     2.7685      0.381750
     2.7690      0.381110
     2.7695      0.383810
     2.7700      0.386440
     2.7705      0.386870
     2.7710      0.384950
     2.7715      0.384720
     2.7720      0.383950
     2.7725      0.382650
     2.7730      0.380880
     2.7735      0.380340
     2.7740      0.380810
     2.7745      0.381450
     2.7750      0.382060
     2.7755      0.382730
     2.7760      0.384110
     2.7765      0.384820
     2.7770      0.385010
     2.7775      0.384560
     2.7780      0.384480
     2.7785      0.384520
     2.7790      0.384160
     2.7795      0.384560
     2.7800      0.385470
     2.7805      0.387020
     2.7810      0.387330
     2.7815      0.387040
     2.7820      0.386620
     2.7825      0.386150
     2.7830      0.385580
     2.7835      0.384710
     2.7840      0.384580
     2.7845      0.385190
     2.7850      0.387490
     2.7855      0.390560
     2.7860      0.393460
     2.7865      0.394690
     2.7870      0.395110
     2.7875      0.394740
     2.7880      0.392640
     2.7885      0.389880
     2.7890      0.387530
     2.7895      0.387500
     2.7900      0.387610
     2.7905      0.387560
     2.7910      0.386730
     2.7915      0.386940
     2.7920      0.387620
     2.7925      0.388540
     2.7930      0.388620
     2.7935      0.388370
     2.7940      0.388090
     2.7945      0.388110
     2.7950      0.388260
     2.7955      0.388410
     2.7960      0.388790
     2.7965      0.389280
     2.7970      0.389790
     2.7975      0.389890
     2.7980      0.389800
     2.7985      0.389820
     2.7990      0.390330
     2.7995      0.391070
     2.8000      0.391730
     2.8005      0.392860
     2.8010      0.394500
     2.8015      0.397970
     2.8020      0.400950
     2.8025      0.403370
     2.8030      0.403610
     2.8035      0.402820
     2.8040      0.401200
     2.8045      0.398600
     2.8050      0.396870
     2.8055      0.395900
     2.8060      0.395780
     2.8065      0.395560
     2.8070      0.395230
     2.8075      0.395660
     2.8080      0.396070
     2.8085      0.396430
     2.8090      0.396110
     2.8095      0.396010
     2.8100      0.396250
     2.8105      0.396840
     2.8110      0.397190
     2.8115      0.397110
     2.8120      0.397250
     2.8125      0.397600
     2.8130      0.398310
     2.8135      0.399570
     2.8140      0.400980
     2.8145      0.402410
     2.8150      0.402070
     2.8155      0.401080
     2.8160      0.399850
     2.8165      0.399820
     2.8170      0.400470
     2.8175      0.401870
     2.8180      0.403150
     2.8185      0.404250
     2.8190      0.404340
     2.8195      0.404430
     2.8200      0.404510
     2.8205      0.404420
     2.8210      0.403920
     2.8215      0.403000
     2.8220      0.402560
     2.8225      0.402270
     2.8230      0.402160
     2.8235      0.402080
     2.8240      0.402080
     2.8245      0.402200
     2.8250      0.402370
     2.8255      0.402680
     2.8260      0.403320
     2.8265      0.404040
     2.8270      0.404630
     2.8275      0.404640
     2.8280      0.404350
     2.8285      0.403950
     2.8290      0.403920
     2.8295      0.404290
     2.8300      0.404960
     2.8305      0.405470
     2.8310      0.405760
     2.8315      0.405810
     2.8320      0.406210
     2.8325      0.406620
     2.8330      0.407000
     2.8335      0.406930
     2.8340      0.406910
     2.8345      0.407210
     2.8350      0.407660
     2.8355      0.408070
     2.8360      0.408060
     2.8365      0.408180
     2.8370      0.408390
     2.8375      0.408800
     2.8380      0.409010
     2.8385      0.409030
     2.8390      0.408730
     2.8395      0.408450
     2.8400      0.408200
     2.8405      0.408350
     2.8410      0.408670
     2.8415      0.409190
     2.8420      0.409420
     2.8425      0.409440
     2.8430      0.408970
     2.8435      0.408640
     2.8440      0.408450
     2.8445      0.408920
     2.8450      0.409390
     2.8455      0.409850
     2.8460      0.410240
     2.8465      0.410570
     2.8470      0.410790
     2.8475      0.410990
     2.8480      0.411390
     2.8485      0.412370
     2.8490      0.412920
     2.8495      0.413140
     2.8500      0.412450
     2.8505      0.412090
     2.8510      0.411970
     2.8515      0.412200
     2.8520      0.412640
     2.8525      0.413350
     2.8530      0.414670
     2.8535      0.415930
     2.8540      0.416830
     2.8545      0.417110
     2.8550      0.417130
     2.8555      0.416930
     2.8560      0.416740
     2.8565      0.416550
     2.8570      0.416550
     2.8575      0.416740
     2.8580      0.417190
     2.8585      0.417950
     2.8590      0.418770
     2.8595      0.419610
     2.8600      0.420210
     2.8605      0.420660
     2.8610      0.420720
     2.8615      0.420810
     2.8620      0.420920
     2.8625      0.421380
     2.8630      0.421950
     2.8635      0.422650
     2.8640      0.423390
     2.8645      0.424200
     2.8650      0.425140
     2.8655      0.426330
     2.8660      0.427640
     2.8665      0.428630
     2.8670      0.429340
     2.8675      0.429750
     2.8680      0.430360
     2.8685      0.431050
     2.8690      0.431880
     2.8695      0.432760
     2.8700      0.433680
     2.8705      0.434720
     2.8710      0.435670
     2.8715      0.436530
     2.8720      0.437460
     2.8725      0.438400
     2.8730      0.439360
     2.8735      0.440300
     2.8740      0.441290
     2.8745      0.442560
     2.8750      0.443660
     2.8755      0.444640
     2.8760      0.445670
     2.8765      0.447110
     2.8770      0.449210
     2.8775      0.450980
     2.8780      0.452430
     2.8785      0.452940
     2.8790      0.453580
     2.8795      0.454310
     2.8800      0.455710
     2.8805      0.457260
     2.8810      0.459050
     2.8815      0.460870
     2.8820      0.462660
     2.8825      0.464320
     2.8830      0.465910
     2.8835      0.467450
     2.8840      0.468590
     2.8845      0.469730
     2.8850      0.470840
     2.8855      0.472550
     2.8860      0.474480
     2.8865      0.476700
     2.8870      0.478660
     2.8875      0.480440
     2.8880      0.481990
     2.8885      0.483590
     2.8890      0.485320
     2.8895      0.487110
     2.8900      0.488930
     2.8905      0.490750
     2.8910      0.492620
     2.8915      0.494540
     2.8920      0.496610
     2.8925      0.498700
     2.8930      0.500810
     2.8935      0.502910
     2.8940      0.505010
     2.8945      0.507320
     2.8950      0.509700
     2.8955      0.512170
     2.8960      0.514530
     2.8965      0.516860
     2.8970      0.519150
     2.8975      0.521280
     2.8980      0.523300
     2.8985      0.525220
     2.8990      0.527670
     2.8995      0.531060
     2.9000      0.534880
     2.9005      0.538640
     2.9010      0.540720
     2.9015      0.542530
     2.9020      0.544060
     2.9025      0.546260
     2.9030      0.548590
     2.9035      0.551020
     2.9040      0.553600
     2.9045      0.556280
     2.9050      0.558880
     2.9055      0.561430
     2.9060      0.563900
     2.9065      0.566500
     2.9070      0.569140
     2.9075      0.571720
     2.9080      0.574400
     2.9085      0.577160
     2.9090      0.580040
     2.9095      0.582890
     2.9100      0.585590
     2.9105      0.588400
     2.9110      0.591300
     2.9115      0.593970
     2.9120      0.596440
     2.9125      0.598510
     2.9130      0.601160
     2.9135      0.604090
     2.9140      0.607400
     2.9145      0.610300
     2.9150      0.612570
     2.9155      0.614900
     2.9160      0.617280
     2.9165      0.619920
     2.9170      0.622390
     2.9175      0.624670
     2.9180      0.627150
     2.9185      0.629750
     2.9190      0.632740
     2.9195      0.635770
     2.9200      0.638850
     2.9205      0.641390
     2.9210      0.643850
     2.9215      0.646220
     2.9220      0.648960
     2.9225      0.651930
     2.9230      0.654130
     2.9235      0.656060
     2.9240      0.657510
     2.9245      0.659310
     2.9250      0.661280
     2.9255      0.663090
     2.9260      0.664830
     2.9265      0.666460
     2.9270      0.668230
     2.9275      0.670040
     2.9280      0.671670
     2.9285      0.673300
     2.9290      0.674930
     2.9295      0.676530
     2.9300      0.678090
     2.9305      0.679390
     2.9310      0.680770
     2.9315      0.682220
     2.9320      0.683760
     2.9325      0.685230
     2.9330      0.686130
     2.9335      0.686790
     2.9340      0.687170
     2.9345      0.687820
     2.9350      0.688570
     2.9355      0.689540
     2.9360      0.690340
     2.9365      0.690970
     2.9370      0.691360
     2.9375      0.691700
     2.9380      0.692050
     2.9385      0.692320
     2.9390      0.692500
     2.9395      0.692870
     2.9400      0.693270
     2.9405      0.693630
     2.9410      0.693510
     2.9415      0.692900
     2.9420      0.692620
     2.9425      0.692490
     2.9430      0.692740
     2.9435      0.692400
     2.9440      0.691450
     2.9445      0.690240
     2.9450      0.689080
     2.9455      0.688500
     2.9460      0.687900
     2.9465      0.687290
     2.9470      0.686040
     2.9475      0.684560
     2.9480      0.682580
     2.9485      0.680790
     2.9490      0.679200
     2.9495      0.677780
     2.9500      0.676380
     2.9505      0.674660
     2.9510      0.672930
     2.9515      0.671190
     2.9520      0.669460
     2.9525      0.667710
     2.9530      0.665690
     2.9535      0.663710
     2.9540      0.661800
     2.9545      0.659870
     2.9550      0.657940
     2.9555      0.655400
     2.9560      0.652740
     2.9565      0.649820
     2.9570      0.646920
     2.9575      0.644030
     2.9580      0.641400
     2.9585      0.638920
     2.9590      0.636850
     2.9595      0.634930
     2.9600      0.633100
     2.9605      0.630630
     2.9610      0.627910
     2.9615      0.624530
     2.9620      0.621250
     2.9625      0.618060
     2.9630      0.615590
     2.9635      0.613320
     2.9640      0.611320
     2.9645      0.608920
     2.9650      0.605950
     2.9655      0.602510
     2.9660      0.598910
     2.9665      0.595900
     2.9670      0.593010
     2.9675      0.590370
     2.9680      0.587630
     2.9685      0.584830
     2.9690      0.581770
     2.9695      0.578720
     2.9700      0.575710
     2.9705      0.573110
     2.9710      0.570850
     2.9715      0.568630
     2.9720      0.566320
     2.9725      0.563350
     2.9730      0.560340
     2.9735      0.557270
     2.9740      0.554300
     2.9745      0.551370
     2.9750      0.548330
     2.9755      0.545330
     2.9760      0.542430
     2.9765      0.539730
     2.9770      0.537150
     2.9775      0.534640
     2.9780      0.532100
     2.9785      0.529390
     2.9790      0.526630
     2.9795      0.523830
     2.9800      0.521410
     2.9805      0.519120
     2.9810      0.517150
     2.9815      0.515020
     2.9820      0.512560
     2.9825      0.509940
     2.9830      0.507210
     2.9835      0.505020
     2.9840      0.502940
     2.9845      0.501030
     2.9850      0.498950
     2.9855      0.496660
     2.9860      0.494430
     2.9865      0.492220
     2.9870      0.489920
     2.9875      0.487520
     2.9880      0.484900
     2.9885      0.482570
     2.9890      0.480450
     2.9895      0.478730
     2.9900      0.477060
     2.9905      0.475230
     2.9910      0.473280
     2.9915      0.471150
     2.9920      0.469030
     2.9925      0.466920
     2.9930      0.465050
     2.9935      0.463190
     2.9940      0.461300
     2.9945      0.459640
     2.9950      0.458190
     2.9955      0.457080
     2.9960      0.456040
     2.9965      0.454380
     2.9970      0.452660
     2.9975      0.450820
     2.9980      0.449240
     2.9985      0.447870
     2.9990      0.446600
     2.9995      0.445350
     3.0000      0.444160
     3.0005      0.442980
     3.0010      0.441810
     3.0015      0.440710
     3.0020      0.439650
     3.0025      0.438710
     3.0030      0.437810
     3.0035      0.437000
     3.0040      0.436220
     3.0045      0.435500
     3.0050      0.434720
     3.0055      0.433910
     3.0060      0.433050
     3.0065      0.432240
     3.0070      0.431660
     3.0075      0.431100
     3.0080      0.430570
     3.0085      0.429780
     3.0090      0.428890
     3.0095      0.428120
     3.0100      0.427460
     3.0105      0.427190
     3.0110      0.426980
     3.0115      0.426820
     3.0120      0.426640
     3.0125      0.426450
     3.0130      0.426230
     3.0135      0.425980
     3.0140      0.425680
     3.0145      0.425400
     3.0150      0.425160
     3.0155      0.425020
     3.0160      0.424930
     3.0165      0.425000
     3.0170      0.425080
     3.0175      0.425200
     3.0180      0.425330
     3.0185      0.425480
     3.0190      0.425750
     3.0195      0.426070
     3.0200      0.426530
     3.0205      0.427040
     3.0210      0.427680
     3.0215      0.428290
     3.0220      0.428850
     3.0225      0.428900
     3.0230      0.428680
     3.0235      0.428330
     3.0240      0.428130
     3.0245      0.429040
     3.0250      0.430150
     3.0255      0.431610
     3.0260      0.432870
     3.0265      0.434010
     3.0270      0.434930
     3.0275      0.435770
     3.0280      0.436040
     3.0285      0.436370
     3.0290      0.436820
     3.0295      0.437560
     3.0300      0.438570
     3.0305      0.439640
     3.0310      0.440740
     3.0315      0.442130
     3.0320      0.443530
     3.0325      0.444970
     3.0330      0.446410
     3.0335      0.447850
     3.0340      0.449240
     3.0345      0.450600
     3.0350      0.451850
     3.0355      0.453130
     3.0360      0.454810
     3.0365      0.456460
     3.0370      0.458010
     3.0375      0.459330
     3.0380      0.460440
     3.0385      0.461970
     3.0390      0.463610
     3.0395      0.465740
     3.0400      0.467850
     3.0405      0.469850
     3.0410      0.471800
     3.0415      0.473690
     3.0420      0.475420
     3.0425      0.477050
     3.0430      0.478840
     3.0435      0.480720
     3.0440      0.483340
     3.0445      0.485880
     3.0450      0.488260
     3.0455      0.490480
     3.0460      0.492550
     3.0465      0.494930
     3.0470      0.497440
     3.0475      0.499660
     3.0480      0.501880
     3.0485      0.504210
     3.0490      0.506820
     3.0495      0.510000
     3.0500      0.513210
     3.0505      0.516430
     3.0510      0.519480
     3.0515      0.522460
     3.0520      0.525180
     3.0525      0.527850
     3.0530      0.530300
     3.0535      0.532850
     3.0540      0.535560
     3.0545      0.538350
     3.0550      0.541190
     3.0555      0.543970
     3.0560      0.546730
     3.0565      0.549740
     3.0570      0.552790
     3.0575      0.555970
     3.0580      0.559220
     3.0585      0.562570
     3.0590      0.566020
     3.0595      0.569550
     3.0600      0.573130
     3.0605      0.576720
     3.0610      0.580390
     3.0615      0.584020
     3.0620      0.587320
     3.0625      0.590470
     3.0630      0.593290
     3.0635      0.596050
     3.0640      0.598770
     3.0645      0.601870
     3.0650      0.605140
     3.0655      0.609170
     3.0660      0.613270
     3.0665      0.617130
     3.0670      0.620860
     3.0675      0.624200
     3.0680      0.627630
     3.0685      0.631170
     3.0690      0.634690
     3.0695      0.638200
     3.0700      0.641720
     3.0705      0.645250
     3.0710      0.648920
     3.0715      0.652610
     3.0720      0.656300
     3.0725      0.659980
     3.0730      0.663610
     3.0735      0.666960
     3.0740      0.670050
     3.0745      0.673080
     3.0750      0.676080
     3.0755      0.679660
     3.0760      0.683300
     3.0765      0.686770
     3.0770      0.690160
     3.0775      0.693340
     3.0780      0.696660
     3.0785      0.700160
     3.0790      0.703530
     3.0795      0.706790
     3.0800      0.709940
     3.0805      0.713040
     3.0810      0.716150
     3.0815      0.719200
     3.0820      0.721720
     3.0825      0.724090
     3.0830      0.726080
     3.0835      0.728170
     3.0840      0.730390
     3.0845      0.733010
     3.0850      0.735900
     3.0855      0.738540
     3.0860      0.741120
     3.0865      0.743320
     3.0870      0.745520
     3.0875      0.747930
     3.0880      0.750130
     3.0885      0.751740
     3.0890      0.753300
     3.0895      0.754770
     3.0900      0.756490
     3.0905      0.758400
     3.0910      0.759630
     3.0915      0.760610
     3.0920      0.761520
     3.0925      0.762450
     3.0930      0.763790
     3.0935      0.764970
     3.0940      0.765490
     3.0945      0.765780
     3.0950      0.765630
     3.0955      0.765620
     3.0960      0.765730
     3.0965      0.766170
     3.0970      0.766780
     3.0975      0.766970
     3.0980      0.767060
     3.0985      0.765940
     3.0990      0.764740
     3.0995      0.763280
     3.1000      0.761950
     3.1005      0.761010
     3.1010      0.760190
     3.1015      0.759540
     3.1020      0.758710
     3.1025      0.757730
     3.1030      0.756360
     3.1035      0.754810
     3.1040      0.753210
     3.1045      0.751610
     3.1050      0.749930
     3.1055      0.748200
     3.1060      0.746010
     3.1065      0.743740
     3.1070      0.741250
     3.1075      0.738800
     3.1080      0.736400
     3.1085      0.734020
     3.1090      0.731680
     3.1095      0.729260
     3.1100      0.726800
     3.1105      0.724190
     3.1110      0.721540
     3.1115      0.718600
     3.1120      0.715600
     3.1125      0.712010
     3.1130      0.708390
     3.1135      0.704640
     3.1140      0.700990
     3.1145      0.697570
     3.1150      0.694160
     3.1155      0.690760
     3.1160      0.687260
     3.1165      0.683690
     3.1170      0.679970
     3.1175      0.676210
     3.1180      0.672510
     3.1185      0.668840
     3.1190      0.665110
     3.1195      0.661350
     3.1200      0.657270
     3.1205      0.653240
     3.1210      0.649360
     3.1215      0.645460
     3.1220      0.641500
     3.1225      0.637390
     3.1230      0.633110
     3.1235      0.629020
     3.1240      0.625080
     3.1245      0.621220
     3.1250      0.617390
     3.1255      0.613350
     3.1260      0.609250
     3.1265      0.605150
     3.1270      0.601060
     3.1275      0.597240
     3.1280      0.593430
     3.1285      0.589720
     3.1290      0.585920
     3.1295      0.581810
     3.1300      0.577640
     3.1305      0.573340
     3.1310      0.569260
     3.1315      0.565410
     3.1320      0.561730
     3.1325      0.558180
     3.1330      0.554620
     3.1335      0.551050
     3.1340      0.547470
     3.1345      0.543880
     3.1350      0.540120
     3.1355      0.536340
     3.1360      0.532370
     3.1365      0.528430
     3.1370      0.524740
     3.1375      0.521170
     3.1380      0.518040
     3.1385      0.514890
     3.1390      0.511710
     3.1395      0.508360
     3.1400      0.504770
     3.1405      0.501230
     3.1410      0.497750
     3.1415      0.494580
     3.1420      0.491610
     3.1425      0.488550
     3.1430      0.485440
     3.1435      0.481790
     3.1440      0.478000
     3.1445      0.474670
     3.1450      0.471390
     3.1455      0.469100
     3.1460      0.466810
     3.1465      0.464310
     3.1470      0.461690
     3.1475      0.458530
     3.1480      0.455400
     3.1485      0.452360
     3.1490      0.449570
     3.1495      0.447220
     3.1500      0.444820
     3.1505      0.442340
     3.1510      0.439660
     3.1515      0.436800
     3.1520      0.434260
     3.1525      0.431940
     3.1530      0.429830
     3.1535      0.427820
     3.1540      0.425540
     3.1545      0.423170
     3.1550      0.420580
     3.1555      0.417950
     3.1560      0.415690
     3.1565      0.413460
     3.1570      0.411420
     3.1575      0.409360
     3.1580      0.407080
     3.1585      0.404870
     3.1590      0.402980
     3.1595      0.401110
     3.1600      0.399290
     3.1605      0.397460
     3.1610      0.395620
     3.1615      0.393980
     3.1620      0.392660
     3.1625      0.391330
     3.1630      0.389990
     3.1635      0.388460
     3.1640      0.386770
     3.1645      0.384950
     3.1650      0.383060
     3.1655      0.381270
     3.1660      0.379550
     3.1665      0.377900
     3.1670      0.376290
     3.1675      0.374530
     3.1680      0.372750
     3.1685      0.371370
     3.1690      0.370050
     3.1695      0.369060
     3.1700      0.368090
     3.1705      0.366870
     3.1710      0.365660
     3.1715      0.364580
     3.1720      0.363530
     3.1725      0.362670
     3.1730      0.361740
     3.1735      0.360480
     3.1740      0.359180
     3.1745      0.357780
     3.1750      0.356530
     3.1755      0.355680
     3.1760      0.354940
     3.1765      0.354410
     3.1770      0.353830
     3.1775      0.353180
     3.1780      0.352460
     3.1785      0.351640
     3.1790      0.350780
     3.1795      0.349860
     3.1800      0.349020
     3.1805      0.348250
     3.1810      0.347440
     3.1815      0.346600
     3.1820      0.345910
     3.1825      0.345290
     3.1830      0.345060
     3.1835      0.345010
     3.1840      0.344670
     3.1845      0.344220
     3.1850      0.343500
     3.1855      0.342720
     3.1860      0.342390
     3.1865      0.342160
     3.1870      0.342120
     3.1875      0.342110
     3.1880      0.342040
     3.1885      0.341970
     3.1890      0.341770
     3.1895      0.341550
     3.1900      0.341170
     3.1905      0.340790
     3.1910      0.340690
     3.1915      0.340590
     3.1920      0.340550
     3.1925      0.340490
     3.1930      0.340150
     3.1935      0.339820
     3.1940      0.339500
     3.1945      0.339230
     3.1950      0.339210
     3.1955      0.339260
     3.1960      0.339620
     3.1965      0.340020
     3.1970      0.340550
     3.1975      0.341020
     3.1980      0.341290
     3.1985      0.341560
     3.1990      0.341850
     3.1995      0.342220
     3.2000      0.342780
     3.2005      0.343270
     3.2010      0.343650
     3.2015      0.343950
     3.2020      0.344090
     3.2025      0.344260
     3.2030      0.344450
     3.2035      0.344780
     3.2040      0.345330
     3.2045      0.346040
     3.2050      0.346970
     3.2055      0.347840
     3.2060      0.348630
     3.2065      0.349430
     3.2070      0.350220
     3.2075      0.351010
     3.2080      0.351790
     3.2085      0.352250
     3.2090      0.352360
     3.2095      0.352480
     3.2100      0.352600
     3.2105      0.353190
     3.2110      0.354210
     3.2115      0.355280
     3.2120      0.356380
     3.2125      0.357290
     3.2130      0.358050
     3.2135      0.359010
     3.2140      0.360140
     3.2145      0.361400
     3.2150      0.362790
     3.2155      0.364020
     3.2160      0.365130
     3.2165      0.365970
     3.2170      0.366620
     3.2175      0.367310
     3.2180      0.368040
     3.2185      0.369150
     3.2190      0.370550
     3.2195      0.371820
     3.2200      0.373000
     3.2205      0.373890
     3.2210      0.374570
     3.2215      0.375540
     3.2220      0.376740
     3.2225      0.378030
     3.2230      0.379400
     3.2235      0.380630
     3.2240      0.381750
     3.2245      0.383120
     3.2250      0.384670
     3.2255      0.386220
     3.2260      0.387750
     3.2265      0.388990
     3.2270      0.389980
     3.2275      0.391320
     3.2280      0.392960
     3.2285      0.394830
     3.2290      0.396930
     3.2295      0.398630
     3.2300      0.399980
     3.2305      0.401500
     3.2310      0.403180
     3.2315      0.405100
     3.2320      0.407270
     3.2325      0.409080
     3.2330      0.410520
     3.2335      0.412010
     3.2340      0.413570
     3.2345      0.415290
     3.2350      0.417230
     3.2355      0.419060
     3.2360      0.420770
     3.2365      0.422620
     3.2370      0.424680
     3.2375      0.426800
     3.2380      0.428990
     3.2385      0.431060
     3.2390      0.432910
     3.2395      0.434780
     3.2400      0.436680
     3.2405      0.438590
     3.2410      0.440530
     3.2415      0.442510
     3.2420      0.444550
     3.2425      0.446550
     3.2430      0.448440
     3.2435      0.450260
     3.2440      0.451850
     3.2445      0.453540
     3.2450      0.455600
     3.2455      0.457730
     3.2460      0.460220
     3.2465      0.462680
     3.2470      0.464990
     3.2475      0.467310
     3.2480      0.469610
     3.2485      0.471890
     3.2490      0.473980
     3.2495      0.476050
     3.2500      0.477960
     3.2505      0.479860
     3.2510      0.482120
     3.2515      0.484370
     3.2520      0.486830
     3.2525      0.489290
     3.2530      0.492030
     3.2535      0.494790
     3.2540      0.497500
     3.2545      0.500210
     3.2550      0.502200
     3.2555      0.504070
     3.2560      0.505840
     3.2565      0.507590
     3.2570      0.509660
     3.2575      0.511820
     3.2580      0.514170
     3.2585      0.516600
     3.2590      0.519370
     3.2595      0.522330
     3.2600      0.525180
     3.2605      0.527970
     3.2610      0.530310
     3.2615      0.532290
     3.2620      0.534310
     3.2625      0.536370
     3.2630      0.538570
     3.2635      0.540950
     3.2640      0.543230
     3.2645      0.545370
     3.2650      0.547520
     3.2655      0.549690
     3.2660      0.551910
     3.2665      0.554210
     3.2670      0.556470
     3.2675      0.558610
     3.2680      0.560800
     3.2685      0.563270
     3.2690      0.565770
     3.2695      0.568480
     3.2700      0.571190
     3.2705      0.573590
     3.2710      0.576000
     3.2715      0.578130
     3.2720      0.580260
     3.2725      0.582210
     3.2730      0.584150
     3.2735      0.586130
     3.2740      0.588120
     3.2745      0.590140
     3.2750      0.592180
     3.2755      0.594060
     3.2760      0.595890
     3.2765      0.597630
     3.2770      0.599330
     3.2775      0.601030
     3.2780      0.602750
     3.2785      0.604520
     3.2790      0.606350
     3.2795      0.608210
     3.2800      0.610110
     3.2805      0.611900
     3.2810      0.613500
     3.2815      0.615030
     3.2820      0.616350
     3.2825      0.617750
     3.2830      0.619460
     3.2835      0.621160
     3.2840      0.622790
     3.2845      0.624390
     3.2850      0.625350
     3.2855      0.626310
     3.2860      0.627370
     3.2865      0.628430
     3.2870      0.629420
     3.2875      0.630410
     3.2880      0.631460
     3.2885      0.632530
     3.2890      0.633820
     3.2895      0.635200
     3.2900      0.636240
     3.2905      0.637090
     3.2910      0.638120
     3.2915      0.639310
     3.2920      0.640550
     3.2925      0.641860
     3.2930      0.642790
     3.2935      0.643060
     3.2940      0.643400
     3.2945      0.643880
     3.2950      0.644360
     3.2955      0.644810
     3.2960      0.645200
     3.2965      0.645010
     3.2970      0.644830
     3.2975      0.645180
     3.2980      0.645530
     3.2985      0.645750
     3.2990      0.645940
     3.2995      0.645660
     3.3000      0.645260
     3.3005      0.645130
     3.3010      0.645110
     3.3015      0.645060
     3.3020      0.644990
     3.3025      0.644820
     3.3030      0.644540
     3.3035      0.644300
     3.3040      0.644110
     3.3045      0.643780
     3.3050      0.643100
     3.3055      0.642380
     3.3060      0.641500
     3.3065      0.640630
     3.3070      0.640120
     3.3075      0.639610
     3.3080      0.639090
     3.3085      0.638570
     3.3090      0.637540
     3.3095      0.636420
     3.3100      0.635190
     3.3105      0.633910
     3.3110      0.633010
     3.3115      0.632360
     3.3120      0.631800
     3.3125      0.631330
     3.3130      0.630730
     3.3135      0.629910
     3.3140      0.629020
     3.3145      0.627910
     3.3150      0.626770
     3.3155      0.625390
     3.3160      0.624010
     3.3165      0.622620
     3.3170      0.621220
     3.3175      0.620010
     3.3180      0.618820
     3.3185      0.617680
     3.3190      0.616550
     3.3195      0.615340
     3.3200      0.614090
     3.3205      0.612700
     3.3210      0.611180
     3.3215      0.609580
     3.3220      0.607870
     3.3225      0.606220
     3.3230      0.604720
     3.3235      0.603280
     3.3240      0.602150
     3.3245      0.601000
     3.3250      0.599440
     3.3255      0.597880
     3.3260      0.595670
     3.3265      0.593360
     3.3270      0.591220
     3.3275      0.589120
     3.3280      0.587400
     3.3285      0.585910
     3.3290      0.584480
     3.3295      0.583140
     3.3300      0.581720
     3.3305      0.580190
     3.3310      0.578600
     3.3315      0.576820
     3.3320      0.575040
     3.3325      0.573250
     3.3330      0.571460
     3.3335      0.569640
     3.3340      0.567830
     3.3345      0.565950
     3.3350      0.564060
     3.3355      0.562370
     3.3360      0.560790
     3.3365      0.559390
     3.3370      0.558170
     3.3375      0.556930
     3.3380      0.555660
     3.3385      0.554310
     3.3390      0.552600
     3.3395      0.550860
     3.3400      0.548610
     3.3405      0.546360
     3.3410      0.544140
     3.3415      0.541920
     3.3420      0.540080
     3.3425      0.538380
     3.3430      0.537010
     3.3435      0.535860
     3.3440      0.534690
     3.3445      0.533490
     3.3450      0.532110
     3.3455      0.530210
     3.3460      0.528320
     3.3465      0.526550
     3.3470      0.524770
     3.3475      0.523460
     3.3480      0.522180
     3.3485      0.520630
     3.3490      0.519020
     3.3495      0.517380
     3.3500      0.515730
     3.3505      0.514240
     3.3510      0.512950
     3.3515      0.511690
     3.3520      0.510500
     3.3525      0.509300
     3.3530      0.508010
     3.3535      0.506720
     3.3540      0.505340
     3.3545      0.503960
     3.3550      0.502860
     3.3555      0.501830
     3.3560      0.500800
     3.3565      0.499760
     3.3570      0.498460
     3.3575      0.496860
     3.3580      0.495260
     3.3585      0.493710
     3.3590      0.492210
     3.3595      0.491220
     3.3600      0.490230
     3.3605      0.489690
     3.3610      0.489170
     3.3615      0.488550
     3.3620      0.487900
     3.3625      0.486850
     3.3630      0.485490
     3.3635      0.484140
     3.3640      0.482780
     3.3645      0.481530
     3.3650      0.480730
     3.3655      0.479920
     3.3660      0.479110
     3.3665      0.478300
     3.3670      0.477280
     3.3675      0.476220
     3.3680      0.475090
     3.3685      0.473910
     3.3690      0.472680
     3.3695      0.471370
     3.3700      0.470180
     3.3705      0.469320
     3.3710      0.468500
     3.3715      0.468090
     3.3720      0.467690
     3.3725      0.467030
     3.3730      0.466330
     3.3735      0.465600
     3.3740      0.464840
     3.3745      0.464100
     3.3750      0.463390
     3.3755      0.462750
     3.3760      0.462290
     3.3765      0.461870
     3.3770      0.461710
     3.3775      0.461550
     3.3780      0.460770
     3.3785      0.459910
     3.3790      0.459020
     3.3795      0.458100
     3.3800      0.457520
     3.3805      0.457290
     3.3810      0.456980
     3.3815      0.456490
     3.3820      0.455990
     3.3825      0.455310
     3.3830      0.454630
     3.3835      0.454140
     3.3840      0.453680
     3.3845      0.453200
     3.3850      0.452720
     3.3855      0.452360
     3.3860      0.452140
     3.3865      0.451990
     3.3870      0.452040
     3.3875      0.452090
     3.3880      0.452050
     3.3885      0.452010
     3.3890      0.451860
     3.3895      0.451690
     3.3900      0.451270
     3.3905      0.450690
     3.3910      0.450030
     3.3915      0.449280
     3.3920      0.448600
     3.3925      0.448270
     3.3930      0.447950
     3.3935      0.447770
     3.3940      0.447600
     3.3945      0.447530
     3.3950      0.447500
     3.3955      0.447520
     3.3960      0.447590
     3.3965      0.447590
     3.3970      0.447410
     3.3975      0.447230
     3.3980      0.447100
     3.3985      0.446960
     3.3990      0.447010
     3.3995      0.447100
     3.4000      0.447340
     3.4005      0.447680
     3.4010      0.448020
     3.4015      0.448360
     3.4020      0.448680
     3.4025      0.448800
     3.4030      0.448920
     3.4035      0.449090
     3.4040      0.449270
     3.4045      0.449350
     3.4050      0.449380
     3.4055      0.449370
     3.4060      0.449300
     3.4065      0.449310
     3.4070      0.449640
     3.4075      0.449960
     3.4080      0.450300
     3.4085      0.450640
     3.4090      0.450550
     3.4095      0.450290
     3.4100      0.450020
     3.4105      0.449740
     3.4110      0.449660
     3.4115      0.450240
     3.4120      0.450820
     3.4125      0.451200
     3.4130      0.451580
     3.4135      0.451490
     3.4140      0.451240
     3.4145      0.451410
     3.4150      0.452010
     3.4155      0.452610
     3.4160      0.453210
     3.4165      0.453810
     3.4170      0.453540
     3.4175      0.453270
     3.4180      0.453370
     3.4185      0.453600
     3.4190      0.453840
     3.4195      0.454110
     3.4200      0.454240
     3.4205      0.453920
     3.4210      0.453600
     3.4215      0.453870
     3.4220      0.454150
     3.4225      0.454640
     3.4230      0.455200
     3.4235      0.455550
     3.4240      0.455630
     3.4245      0.455760
     3.4250      0.456050
     3.4255      0.456350
     3.4260      0.456990
     3.4265      0.457660
     3.4270      0.458300
     3.4275      0.458920
     3.4280      0.459540
     3.4285      0.460190
     3.4290      0.460800
     3.4295      0.461240
     3.4300      0.461680
     3.4305      0.462040
     3.4310      0.462380
     3.4315      0.463120
     3.4320      0.464120
     3.4325      0.465180
     3.4330      0.466360
     3.4335      0.467480
     3.4340      0.467600
     3.4345      0.467720
     3.4350      0.467330
     3.4355      0.466820
     3.4360      0.466600
     3.4365      0.466690
     3.4370      0.466890
     3.4375      0.467520
     3.4380      0.468140
     3.4385      0.468550
     3.4390      0.468960
     3.4395      0.469190
     3.4400      0.469340
     3.4405      0.469580
     3.4410      0.470000
     3.4415      0.470410
     3.4420      0.470830
     3.4425      0.471240
     3.4430      0.471490
     3.4435      0.471690
     3.4440      0.472110
     3.4445      0.472730
     3.4450      0.473350
     3.4455      0.473940
     3.4460      0.474540
     3.4465      0.474630
     3.4470      0.474690
     3.4475      0.474670
     3.4480      0.474610
     3.4485      0.474490
     3.4490      0.474270
     3.4495      0.474070
     3.4500      0.474030
     3.4505      0.473980
     3.4510      0.474180
     3.4515      0.474440
     3.4520      0.474530
     3.4525      0.474420
     3.4530      0.474280
     3.4535      0.473970
     3.4540      0.473670
     3.4545      0.473540
     3.4550      0.473440
     3.4555      0.473410
     3.4560      0.473440
     3.4565      0.473540
     3.4570      0.473850
     3.4575      0.474160
     3.4580      0.474560
     3.4585      0.474970
     3.4590      0.475180
     3.4595      0.475290
     3.4600      0.475320
     3.4605      0.475200
     3.4610      0.475080
     3.4615      0.474880
     3.4620      0.474680
     3.4625      0.474450
     3.4630      0.474210
     3.4635      0.473920
     3.4640      0.473550
     3.4645      0.473160
     3.4650      0.472680
     3.4655      0.472190
     3.4660      0.471830
     3.4665      0.471510
     3.4670      0.471290
     3.4675      0.471180
     3.4680      0.471080
     3.4685      0.471050
     3.4690      0.471020
     3.4695      0.470820
     3.4700      0.470570
     3.4705      0.470110
     3.4710      0.469440
     3.4715      0.468730
     3.4720      0.467840
     3.4725      0.466940
     3.4730      0.466330
     3.4735      0.465760
     3.4740      0.465350
     3.4745      0.465080
     3.4750      0.464710
     3.4755      0.463960
     3.4760      0.463210
     3.4765      0.462410
     3.4770      0.461600
     3.4775      0.461010
     3.4780      0.460610
     3.4785      0.460120
     3.4790      0.459370
     3.4795      0.458620
     3.4800      0.457590
     3.4805      0.456520
     3.4810      0.455450
     3.4815      0.454370
     3.4820      0.453360
     3.4825      0.452550
     3.4830      0.451750
     3.4835      0.451310
     3.4840      0.450930
     3.4845      0.450240
     3.4850      0.449270
     3.4855      0.448170
     3.4860      0.446490
     3.4865      0.444800
     3.4870      0.443570
     3.4875      0.442420
     3.4880      0.441450
     3.4885      0.440650
     3.4890      0.439720
     3.4895      0.438120
     3.4900      0.436510
     3.4905      0.434870
     3.4910      0.433220
     3.4915      0.431950
     3.4920      0.431120
     3.4925      0.430290
     3.4930      0.429310
     3.4935      0.428340
     3.4940      0.427140
     3.4945      0.425860
     3.4950      0.424670
     3.4955      0.423600
     3.4960      0.422530
     3.4965      0.421160
     3.4970      0.419800
     3.4975      0.418060
     3.4980      0.416140
     3.4985      0.414160
     3.4990      0.412050
     3.4995      0.409940
     3.5000      0.408100
     3.5005      0.406270
     3.5010      0.404760
     3.5015      0.403480
     3.5020      0.402260
     3.5025      0.401240
     3.5030      0.400220
     3.5035      0.398850
     3.5040      0.397430
     3.5045      0.395620
     3.5050      0.393450
     3.5055      0.391300
     3.5060      0.389350
     3.5065      0.387400
     3.5070      0.386050
     3.5075      0.384880
     3.5080      0.383730
     3.5085      0.382590
     3.5090      0.381460
     3.5095      0.379960
     3.5100      0.378460
     3.5105      0.376710
     3.5110      0.374820
     3.5115      0.373030
     3.5120      0.371510
     3.5125      0.369980
     3.5130      0.368720
     3.5135      0.367490
     3.5140      0.365880
     3.5145      0.363880
     3.5150      0.361870
     3.5155      0.359690
     3.5160      0.357500
     3.5165      0.355230
     3.5170      0.352930
     3.5175      0.350630
     3.5180      0.348360
     3.5185      0.346090
     3.5190      0.344760
     3.5195      0.343480
     3.5200      0.342100
     3.5205      0.340650
     3.5210      0.339070
     3.5215      0.336910
     3.5220      0.334760
     3.5225      0.332830
     3.5230      0.330960
     3.5235      0.329270
     3.5240      0.327860
     3.5245      0.326450
     3.5250      0.324590
     3.5255      0.322720
     3.5260      0.320570
     3.5265      0.318230
     3.5270      0.316130
     3.5275      0.314930
     3.5280      0.313730
     3.5285      0.312650
     3.5290      0.311600
     3.5295      0.310320
     3.5300      0.308700
     3.5305      0.307070
     3.5310      0.306380
     3.5315      0.305690
     3.5320      0.304290
     3.5325      0.302410
     3.5330      0.300180
     3.5335      0.296400
     3.5340      0.292620
     3.5345      0.290090
     3.5350      0.287900
     3.5355      0.286300
     3.5360      0.285690
     3.5365      0.285080
     3.5370      0.283900
     3.5375      0.282690
     3.5380      0.281390
     3.5385      0.280000
     3.5390      0.278650
     3.5395      0.277450
     3.5400      0.276260
     3.5405      0.274380
     3.5410      0.272220
     3.5415      0.270190
     3.5420      0.268460
     3.5425      0.266720
     3.5430      0.266620
     3.5435      0.266760
     3.5440      0.266460
     3.5445      0.265640
     3.5450      0.264760
     3.5455      0.262080
     3.5460      0.259410
     3.5465      0.257090
     3.5470      0.254990
     3.5475      0.253010
     3.5480      0.251600
     3.5485      0.250180
     3.5490      0.248590
     3.5495      0.246940
     3.5500      0.245370
     3.5505      0.243970
     3.5510      0.242580
     3.5515      0.241640
     3.5520      0.240770
     3.5525      0.239850
     3.5530      0.238890
     3.5535      0.237930
     3.5540      0.236890
     3.5545      0.235850
     3.5550      0.234830
     3.5555      0.233820
     3.5560      0.232770
     3.5565      0.231480
     3.5570      0.230190
     3.5575      0.228680
     3.5580      0.227070
     3.5585      0.225630
     3.5590      0.224660
     3.5595      0.223690
     3.5600      0.223550
     3.5605      0.223590
     3.5610      0.223190
     3.5615      0.222070
     3.5620      0.220950
     3.5625      0.218760
     3.5630      0.216490
     3.5635      0.214360
     3.5640      0.212380
     3.5645      0.210390
     3.5650      0.208370
     3.5655      0.206340
     3.5660      0.204920
     3.5665      0.203930
     3.5670      0.203090
     3.5675      0.203260
     3.5680      0.203420
     3.5685      0.204060
     3.5690      0.204920
     3.5695      0.205800
     3.5700      0.206690
     3.5705      0.207590
     3.5710      0.206670
     3.5715      0.205180
