# author : Oliver Czoske
# source : Ester Aranzana
# date_created : 2017-11-20
# date_modified: 2025-12-16
# status: Measured at 80 K
# wavelength_unit : um
# changes :
# - 2022-03-17 (KL) Updated to match Ric Davies' email
# - 2023-06-06 (RD) Modified profiles after discussion with Schott
# - 2025-06-16 (FH) Updated filter curve based on Ric Davies' email.
# - 2025-12-16 (OC) Replaced with measured values
#
 wavelength  transmission
     0.4990      0.011680
     0.4995      0.011680
     0.5000      0.010150
     0.5005      0.029500
     0.5010      0.014100
     0.5015      0.016370
     0.5020      0.011470
     0.5025      0.014650
     0.5030      0.016220
     0.5035      0.023260
     0.5040      0.010170
     0.5045      0.012080
     0.5050      0.015530
     0.5055      0.004540
     0.5060      0.005870
     0.5065      0.005890
     0.5070      0.011140
     0.5075      0.006510
     0.5080      0.000760
     0.5085      0.000380
     0.5090      0.024000
     0.5095      0.000000
     0.5100      0.010530
     0.5105      0.019760
     0.5110      0.000000
     0.5115      0.000000
     0.5120      0.022710
     0.5125      0.018420
     0.5130      0.000000
     0.5135      0.000000
     0.5140      0.004820
     0.5145      0.012200
     0.5150      0.000530
     0.5155      0.002150
     0.5160      0.002880
     0.5165      0.000000
     0.5170      0.001360
     0.5175      0.003940
     0.5180      0.000000
     0.5185      0.000000
     0.5190      0.001990
     0.5195      0.007920
     0.5200      0.001830
     0.5205      0.000000
     0.5210      0.008100
     0.5215      0.000000
     0.5220      0.000000
     0.5225      0.000000
     0.5230      0.000000
     0.5235      0.000000
     0.5240      0.000000
     0.5245      0.000420
     0.5250      0.000000
     0.5255      0.000000
     0.5260      0.001650
     0.5265      0.000000
     0.5270      0.000000
     0.5275      0.000000
     0.5280      0.000000
     0.5285      0.000000
     0.5290      0.000000
     0.5295      0.001750
     0.5300      0.000000
     0.5305      0.000000
     0.5310      0.000000
     0.5315      0.000000
     0.5320      0.000000
     0.5325      0.000000
     0.5330      0.000000
     0.5335      0.000000
     0.5340      0.000000
     0.5345      0.001160
     0.5350      0.000000
     0.5355      0.000000
     0.5360      0.000000
     0.5365      0.000000
     0.5370      0.000380
     0.5375      0.003550
     0.5380      0.000000
     0.5385      0.000000
     0.5390      0.000000
     0.5395      0.000000
     0.5400      0.000000
     0.5405      0.000000
     0.5410      0.000000
     0.5415      0.000000
     0.5420      0.000000
     0.5425      0.000000
     0.5430      0.000000
     0.5435      0.000000
     0.5440      0.000000
     0.5445      0.000000
     0.5450      0.000000
     0.5455      0.000000
     0.5460      0.000000
     0.5465      0.000000
     0.5470      0.000000
     0.5475      0.000000
     0.5480      0.000000
     0.5485      0.000000
     0.5490      0.000000
     0.5495      0.000000
     0.5500      0.000000
     0.5505      0.000000
     0.5510      0.000530
     0.5515      0.000000
     0.5520      0.000000
     0.5525      0.000620
     0.5530      0.000000
     0.5535      0.000000
     0.5540      0.000000
     0.5545      0.000000
     0.5550      0.000000
     0.5555      0.015570
     0.5560      0.122220
     0.5565      0.014400
     0.5570      0.001150
     0.5575      0.002910
     0.5580      0.000290
     0.5585      0.001160
     0.5590      0.000000
     0.5595      0.000000
     0.5600      0.000000
     0.5605      0.000440
     0.5610      0.000150
     0.5615      0.001130
     0.5620      0.000140
     0.5625      0.000000
     0.5630      0.000160
     0.5635      0.002590
     0.5640      0.002390
     0.5645      0.002960
     0.5650      0.003730
     0.5655      0.018080
     0.5660      0.132590
     0.5665      0.205620
     0.5670      0.034640
     0.5675      0.014430
     0.5680      0.007260
     0.5685      0.010070
     0.5690      0.007390
     0.5695      0.008480
     0.5700      0.007240
     0.5705      0.008730
     0.5710      0.012950
     0.5715      0.017690
     0.5720      0.026150
     0.5725      0.037610
     0.5730      0.049720
     0.5735      0.059930
     0.5740      0.062570
     0.5745      0.060980
     0.5750      0.057480
     0.5755      0.054150
     0.5760      0.053250
     0.5765      0.051800
     0.5770      0.053800
     0.5775      0.056280
     0.5780      0.066140
     0.5785      0.084410
     0.5790      0.103070
     0.5795      0.086940
     0.5800      0.052350
     0.5805      0.029910
     0.5810      0.015990
     0.5815      0.010320
     0.5820      0.007060
     0.5825      0.006150
     0.5830      0.004680
     0.5835      0.003330
     0.5840      0.003320
     0.5845      0.002260
     0.5850      0.002650
     0.5855      0.002630
     0.5860      0.002800
     0.5865      0.003900
     0.5870      0.004340
     0.5875      0.005750
     0.5880      0.008140
     0.5885      0.011650
     0.5890      0.017980
     0.5895      0.025990
     0.5900      0.031390
     0.5905      0.035860
     0.5910      0.037840
     0.5915      0.039580
     0.5920      0.046840
     0.5925      0.057140
     0.5930      0.069970
     0.5935      0.080270
     0.5940      0.083480
     0.5945      0.079630
     0.5950      0.064370
     0.5955      0.043500
     0.5960      0.027690
     0.5965      0.018320
     0.5970      0.012860
     0.5975      0.009160
     0.5980      0.006360
     0.5985      0.004700
     0.5990      0.003020
     0.5995      0.003230
     0.6000      0.001580
     0.6005      0.003230
     0.6010      0.003270
     0.6015      0.004510
     0.6020      0.004350
     0.6025      0.004140
     0.6030      0.004950
     0.6035      0.006090
     0.6040      0.009950
     0.6045      0.017370
     0.6050      0.032310
     0.6055      0.051040
     0.6060      0.060550
     0.6065      0.064530
     0.6070      0.070450
     0.6075      0.083710
     0.6080      0.101600
     0.6085      0.099500
     0.6090      0.074550
     0.6095      0.053840
     0.6100      0.041710
     0.6105      0.037540
     0.6110      0.035620
     0.6115      0.034380
     0.6120      0.032120
     0.6125      0.030320
     0.6130      0.028200
     0.6135      0.026940
     0.6140      0.024540
     0.6145      0.020530
     0.6150      0.017040
     0.6155      0.015000
     0.6160      0.015270
     0.6165      0.015640
     0.6170      0.016260
     0.6175      0.014700
     0.6180      0.011430
     0.6185      0.009480
     0.6190      0.008290
     0.6195      0.009190
     0.6200      0.011330
     0.6205      0.013100
     0.6210      0.012970
     0.6215      0.012190
     0.6220      0.011890
     0.6225      0.014730
     0.6230      0.023400
     0.6235      0.044470
     0.6240      0.074440
     0.6245      0.061850
     0.6250      0.038570
     0.6255      0.027960
     0.6260      0.024350
     0.6265      0.025000
     0.6270      0.028200
     0.6275      0.033580
     0.6280      0.037180
     0.6285      0.035380
     0.6290      0.027060
     0.6295      0.018420
     0.6300      0.013190
     0.6305      0.012680
     0.6310      0.015930
     0.6315      0.021390
     0.6320      0.013360
     0.6325      0.005310
     0.6330      0.000090
     0.6335      0.002240
     0.6340      0.001440
     0.6345      0.000460
     0.6350      0.000160
     0.6355      0.000000
     0.6360      0.000300
     0.6365      0.000000
     0.6370      0.000000
     0.6375      0.000000
     0.6380      0.000000
     0.6385      0.000000
     0.6390      0.000000
     0.6395      0.000000
     0.6400      0.000000
     0.6405      0.000000
     0.6410      0.000000
     0.6415      0.000000
     0.6420      0.000000
     0.6425      0.000000
     0.6430      0.000000
     0.6435      0.000000
     0.6440      0.000000
     0.6445      0.000000
     0.6450      0.000000
     0.6455      0.000000
     0.6460      0.000000
     0.6465      0.000000
     0.6470      0.000000
     0.6475      0.000000
     0.6480      0.000000
     0.6485      0.000000
     0.6490      0.000000
     0.6495      0.000000
     0.6500      0.000000
     0.6505      0.000000
     0.6510      0.000000
     0.6515      0.000000
     0.6520      0.000000
     0.6525      0.000000
     0.6530      0.000000
     0.6535      0.000000
     0.6540      0.000000
     0.6545      0.000000
     0.6550      0.000000
     0.6555      0.000000
     0.6560      0.000000
     0.6565      0.000000
     0.6570      0.000000
     0.6575      0.000000
     0.6580      0.000000
     0.6585      0.000000
     0.6590      0.000000
     0.6595      0.000000
     0.6600      0.000000
     0.6605      0.000000
     0.6610      0.000000
     0.6615      0.000000
     0.6620      0.000000
     0.6625      0.000000
     0.6630      0.000000
     0.6635      0.000000
     0.6640      0.000000
     0.6645      0.000000
     0.6650      0.000000
     0.6655      0.000000
     0.6660      0.000000
     0.6665      0.000030
     0.6670      0.000170
     0.6675      0.000040
     0.6680      0.000180
     0.6685      0.000300
     0.6690      0.000240
     0.6695      0.000250
     0.6700      0.000460
     0.6705      0.000710
     0.6710      0.000410
     0.6715      0.000620
     0.6720      0.000670
     0.6725      0.000630
     0.6730      0.000630
     0.6735      0.000730
     0.6740      0.000370
     0.6745      0.000540
     0.6750      0.000750
     0.6755      0.000580
     0.6760      0.000750
     0.6765      0.000570
     0.6770      0.000660
     0.6775      0.000680
     0.6780      0.000450
     0.6785      0.000570
     0.6790      0.000310
     0.6795      0.000840
     0.6800      0.000700
     0.6805      0.000420
     0.6810      0.000550
     0.6815      0.000680
     0.6820      0.000760
     0.6825      0.000720
     0.6830      0.000740
     0.6835      0.000750
     0.6840      0.000750
     0.6845      0.000770
     0.6850      0.000680
     0.6855      0.000620
     0.6860      0.000730
     0.6865      0.000520
     0.6870      0.000760
     0.6875      0.000740
     0.6880      0.001040
     0.6885      0.000940
     0.6890      0.000760
     0.6895      0.000550
     0.6900      0.000640
     0.6905      0.000310
     0.6910      0.000000
     0.6915      0.000000
     0.6920      0.000000
     0.6925      0.000000
     0.6930      0.000000
     0.6935      0.000000
     0.6940      0.000000
     0.6945      0.000900
     0.6950      0.001950
     0.6955      0.002630
     0.6960      0.002930
     0.6965      0.003100
     0.6970      0.003510
     0.6975      0.003930
     0.6980      0.004430
     0.6985      0.004710
     0.6990      0.004520
     0.6995      0.004290
     0.7000      0.004770
     0.7005      0.004830
     0.7010      0.004900
     0.7015      0.004990
     0.7020      0.005160
     0.7025      0.004990
     0.7030      0.005430
     0.7035      0.005370
     0.7040      0.005310
     0.7045      0.005530
     0.7050      0.005350
     0.7055      0.005450
     0.7060      0.005520
     0.7065      0.005540
     0.7070      0.005190
     0.7075      0.005310
     0.7080      0.005250
     0.7085      0.005230
     0.7090      0.005140
     0.7095      0.005010
     0.7100      0.004900
     0.7105      0.004910
     0.7110      0.005000
     0.7115      0.005040
     0.7120      0.004850
     0.7125      0.004820
     0.7130      0.004470
     0.7135      0.004580
     0.7140      0.004610
     0.7145      0.004370
     0.7150      0.004570
     0.7155      0.004590
     0.7160      0.004580
     0.7165      0.004230
     0.7170      0.004370
     0.7175      0.004320
     0.7180      0.004050
     0.7185      0.004030
     0.7190      0.004040
     0.7195      0.003830
     0.7200      0.003690
     0.7205      0.003600
     0.7210      0.003500
     0.7215      0.003700
     0.7220      0.003560
     0.7225      0.003630
     0.7230      0.003470
     0.7235      0.003450
     0.7240      0.003200
     0.7245      0.003250
     0.7250      0.003160
     0.7255      0.002930
     0.7260      0.002740
     0.7265      0.002600
     0.7270      0.002510
     0.7275      0.002330
     0.7280      0.002140
     0.7285      0.002340
     0.7290      0.002150
     0.7295      0.002200
     0.7300      0.001990
     0.7305      0.001990
     0.7310      0.001590
     0.7315      0.001310
     0.7320      0.001090
     0.7325      0.001040
     0.7330      0.000860
     0.7335      0.000740
     0.7340      0.000790
     0.7345      0.000710
     0.7350      0.000800
     0.7355      0.000660
     0.7360      0.000630
     0.7365      0.000580
     0.7370      0.000350
     0.7375      0.000360
     0.7380      0.000240
     0.7385      0.000080
     0.7390      0.000000
     0.7395      0.000050
     0.7400      0.000000
     0.7405      0.000000
     0.7410      0.000000
     0.7415      0.000000
     0.7420      0.000000
     0.7425      0.000000
     0.7430      0.000000
     0.7435      0.000000
     0.7440      0.000000
     0.7445      0.000000
     0.7450      0.000000
     0.7455      0.000000
     0.7460      0.000000
     0.7465      0.000000
     0.7470      0.000000
     0.7475      0.000000
     0.7480      0.000000
     0.7485      0.000000
     0.7490      0.000000
     0.7495      0.000000
     0.7500      0.000000
     0.7505      0.000000
     0.7510      0.000000
     0.7515      0.000000
     0.7520      0.000000
     0.7525      0.000000
     0.7530      0.000000
     0.7535      0.000000
     0.7540      0.000000
     0.7545      0.000000
     0.7550      0.000000
     0.7555      0.000000
     0.7560      0.000000
     0.7565      0.000000
     0.7570      0.000000
     0.7575      0.000000
     0.7580      0.000000
     0.7585      0.000000
     0.7590      0.000000
     0.7595      0.000000
     0.7600      0.000000
     0.7605      0.000000
     0.7610      0.000000
     0.7615      0.000000
     0.7620      0.000000
     0.7625      0.000000
     0.7630      0.000000
     0.7635      0.000000
     0.7640      0.000000
     0.7645      0.000000
     0.7650      0.000000
     0.7655      0.000000
     0.7660      0.000000
     0.7665      0.000000
     0.7670      0.000000
     0.7675      0.000000
     0.7680      0.000000
     0.7685      0.000000
     0.7690      0.000000
     0.7695      0.000000
     0.7700      0.000000
     0.7705      0.000000
     0.7710      0.000000
     0.7715      0.000000
     0.7720      0.000000
     0.7725      0.000000
     0.7730      0.000000
     0.7735      0.000000
     0.7740      0.000000
     0.7745      0.000000
     0.7750      0.000000
     0.7755      0.000000
     0.7760      0.000000
     0.7765      0.000000
     0.7770      0.000000
     0.7775      0.000000
     0.7780      0.000000
     0.7785      0.000000
     0.7790      0.000000
     0.7795      0.000000
     0.7800      0.000000
     0.7805      0.000000
     0.7810      0.000000
     0.7815      0.000000
     0.7820      0.000000
     0.7825      0.000000
     0.7830      0.000000
     0.7835      0.000000
     0.7840      0.000000
     0.7845      0.000000
     0.7850      0.000000
     0.7855      0.000000
     0.7860      0.000000
     0.7865      0.000000
     0.7870      0.000000
     0.7875      0.000000
     0.7880      0.000000
     0.7885      0.000000
     0.7890      0.000000
     0.7895      0.000000
     0.7900      0.000000
     0.7905      0.000000
     0.7910      0.000000
     0.7915      0.000000
     0.7920      0.000000
     0.7925      0.000170
     0.7930      0.000620
     0.7935      0.000900
     0.7940      0.000820
     0.7945      0.000480
     0.7950      0.000920
     0.7955      0.002280
     0.7960      0.004810
     0.7965      0.009790
     0.7970      0.019770
     0.7975      0.041100
     0.7980      0.088430
     0.7985      0.192210
     0.7990      0.381050
     0.7995      0.591710
     0.8000      0.699590
     0.8005      0.717890
     0.8010      0.716060
     0.8015      0.721420
     0.8020      0.736690
     0.8025      0.757350
     0.8030      0.779200
     0.8035      0.799620
     0.8040      0.818340
     0.8045      0.835430
     0.8050      0.851700
     0.8055      0.866980
     0.8060      0.880420
     0.8065      0.890870
     0.8070      0.897200
     0.8075      0.898760
     0.8080      0.895530
     0.8085      0.888270
     0.8090      0.879150
     0.8095      0.870540
     0.8100      0.863470
     0.8105      0.859480
     0.8110      0.859600
     0.8115      0.863420
     0.8120      0.870410
     0.8125      0.879720
     0.8130      0.890260
     0.8135      0.900150
     0.8140      0.908950
     0.8145      0.915370
     0.8150      0.919760
     0.8155      0.921830
     0.8160      0.922370
     0.8165      0.922480
     0.8170      0.922360
     0.8175      0.922530
     0.8180      0.923340
     0.8185      0.924600
     0.8190      0.926240
     0.8195      0.927740
     0.8200      0.928790
     0.8205      0.930100
     0.8210      0.931170
     0.8215      0.932300
     0.8220      0.933710
     0.8225      0.935370
     0.8230      0.937540
     0.8235      0.939790
     0.8240      0.941700
     0.8245      0.943600
     0.8250      0.945030
     0.8255      0.945720
     0.8260      0.945910
     0.8265      0.945350
     0.8270      0.944940
     0.8275      0.944030
     0.8280      0.943210
     0.8285      0.942600
     0.8290      0.941780
     0.8295      0.940590
     0.8300      0.939310
     0.8305      0.937670
     0.8310      0.935690
     0.8315      0.933600
     0.8320      0.931640
     0.8325      0.929850
     0.8330      0.928760
     0.8335      0.928200
     0.8340      0.928110
     0.8345      0.928720
     0.8350      0.929350
     0.8355      0.930000
     0.8360      0.930420
     0.8365      0.930410
     0.8370      0.930240
     0.8375      0.929920
     0.8380      0.929670
     0.8385      0.929730
     0.8390      0.930490
     0.8395      0.931610
     0.8400      0.933200
     0.8405      0.934660
     0.8410      0.936120
     0.8415      0.936480
     0.8420      0.935690
     0.8425      0.934030
     0.8430      0.931350
     0.8435      0.928370
     0.8440      0.925560
     0.8445      0.923410
     0.8450      0.922720
     0.8455      0.923570
     0.8460      0.925970
     0.8465      0.929710
     0.8470      0.933870
     0.8475      0.937850
     0.8480      0.941180
     0.8485      0.942770
     0.8490      0.942490
     0.8495      0.940560
     0.8500      0.937150
     0.8505      0.933110
     0.8510      0.928980
     0.8515      0.925880
     0.8520      0.924320
     0.8525      0.924500
     0.8530      0.926440
     0.8535      0.929670
     0.8540      0.933710
     0.8545      0.937640
     0.8550      0.940610
     0.8555      0.942160
     0.8560      0.942460
     0.8565      0.940720
     0.8570      0.937970
     0.8575      0.934730
     0.8580      0.931470
     0.8585      0.928560
     0.8590      0.926700
     0.8595      0.925920
     0.8600      0.926010
     0.8605      0.926820
     0.8610      0.927840
     0.8615      0.928720
     0.8620      0.929360
     0.8625      0.929250
     0.8630      0.928630
     0.8635      0.927770
     0.8640      0.926940
     0.8645      0.926500
     0.8650      0.926620
     0.8655      0.927670
     0.8660      0.929680
     0.8665      0.932520
     0.8670      0.935690
     0.8675      0.938990
     0.8680      0.942150
     0.8685      0.944630
     0.8690      0.946310
     0.8695      0.947120
     0.8700      0.947170
     0.8705      0.946720
     0.8710      0.946490
     0.8715      0.946360
     0.8720      0.946790
     0.8725      0.947780
     0.8730      0.949280
     0.8735      0.951110
     0.8740      0.952800
     0.8745      0.954470
     0.8750      0.955640
     0.8755      0.955880
     0.8760      0.955650
     0.8765      0.954670
     0.8770      0.953280
     0.8775      0.951590
     0.8780      0.950060
     0.8785      0.948960
     0.8790      0.948020
     0.8795      0.947950
     0.8800      0.947790
     0.8805      0.948150
     0.8810      0.948570
     0.8815      0.948900
     0.8820      0.949030
     0.8825      0.948860
     0.8830      0.948540
     0.8835      0.948110
     0.8840      0.947730
     0.8845      0.947590
     0.8850      0.947580
     0.8855      0.947960
     0.8860      0.948470
     0.8865      0.949070
     0.8870      0.949700
     0.8875      0.950230
     0.8880      0.950500
     0.8885      0.950310
     0.8890      0.949800
     0.8895      0.948930
     0.8900      0.948120
     0.8905      0.947540
     0.8910      0.947150
     0.8915      0.947450
     0.8920      0.948180
     0.8925      0.949420
     0.8930      0.951380
     0.8935      0.953310
     0.8940      0.955360
     0.8945      0.957080
     0.8950      0.958110
     0.8955      0.958600
     0.8960      0.958450
     0.8965      0.957520
     0.8970      0.956210
     0.8975      0.954610
     0.8980      0.953010
     0.8985      0.951570
     0.8990      0.950560
     0.8995      0.949900
     0.9000      0.949720
     0.9005      0.949800
     0.9010      0.950080
     0.9015      0.950120
     0.9020      0.950100
     0.9025      0.949820
     0.9030      0.948970
     0.9035      0.947800
     0.9040      0.946370
     0.9045      0.944890
     0.9050      0.943400
     0.9055      0.941930
     0.9060      0.940730
     0.9065      0.939690
     0.9070      0.938770
     0.9075      0.937750
     0.9080      0.936500
     0.9085      0.935010
     0.9090      0.933250
     0.9095      0.931070
     0.9100      0.928650
     0.9105      0.926200
     0.9110      0.923660
     0.9115      0.921310
     0.9120      0.919250
     0.9125      0.917710
     0.9130      0.916560
     0.9135      0.916020
     0.9140      0.916030
     0.9145      0.916330
     0.9150      0.916830
     0.9155      0.917400
     0.9160      0.918080
     0.9165      0.918590
     0.9170      0.919200
     0.9175      0.920030
     0.9180      0.921030
     0.9185      0.922360
     0.9190      0.924140
     0.9195      0.926260
     0.9200      0.928590
     0.9205      0.930940
     0.9210      0.933130
     0.9215      0.934440
     0.9220      0.934610
     0.9225      0.933530
     0.9230      0.930960
     0.9235      0.927310
     0.9240      0.922850
     0.9245      0.918290
     0.9250      0.914480
     0.9255      0.912100
     0.9260      0.911870
     0.9265      0.913980
     0.9270      0.918790
     0.9275      0.925580
     0.9280      0.933300
     0.9285      0.939840
     0.9290      0.942720
     0.9295      0.939520
     0.9300      0.928640
     0.9305      0.910070
     0.9310      0.885210
     0.9315      0.857430
     0.9320      0.830130
     0.9325      0.805470
     0.9330      0.782820
     0.9335      0.753620
     0.9340      0.700120
     0.9345      0.600640
     0.9350      0.456700
     0.9355      0.305940
     0.9360      0.187970
     0.9365      0.111600
     0.9370      0.066510
     0.9375      0.040660
     0.9380      0.025800
     0.9385      0.017080
     0.9390      0.011860
     0.9395      0.008590
     0.9400      0.006470
     0.9405      0.004930
     0.9410      0.003790
     0.9415      0.002930
     0.9420      0.002210
     0.9425      0.001630
     0.9430      0.001160
     0.9435      0.000670
     0.9440      0.000380
     0.9445      0.000280
     0.9450      0.000250
     0.9455      0.000360
     0.9460      0.000420
     0.9465      0.000440
     0.9470      0.000450
     0.9475      0.000450
     0.9480      0.000420
     0.9485      0.000360
     0.9490      0.000340
     0.9495      0.000240
     0.9500      0.000230
     0.9505      0.000110
     0.9510      0.000080
     0.9515      0.000000
     0.9520      0.000000
     0.9525      0.000000
     0.9530      0.000000
     0.9535      0.000000
     0.9540      0.000000
     0.9545      0.000000
     0.9550      0.000000
     0.9555      0.000000
     0.9560      0.000000
     0.9565      0.000000
     0.9570      0.000000
     0.9575      0.000000
     0.9580      0.000000
     0.9585      0.000000
     0.9590      0.000000
     0.9595      0.000000
     0.9600      0.000000
     0.9605      0.000000
     0.9610      0.000000
     0.9615      0.000000
     0.9620      0.000000
     0.9625      0.000000
     0.9630      0.000000
     0.9635      0.000070
     0.9640      0.000230
     0.9645      0.000330
     0.9650      0.000440
     0.9655      0.000470
     0.9660      0.000500
     0.9665      0.000520
     0.9670      0.000570
     0.9675      0.000540
     0.9680      0.000590
     0.9685      0.000600
     0.9690      0.000590
     0.9695      0.000570
     0.9700      0.000520
     0.9705      0.000520
     0.9710      0.000520
     0.9715      0.000500
     0.9720      0.000480
     0.9725      0.000440
     0.9730      0.000460
     0.9735      0.000460
     0.9740      0.000440
     0.9745      0.000420
     0.9750      0.000410
     0.9755      0.000430
     0.9760      0.000410
     0.9765      0.000440
     0.9770      0.000420
     0.9775      0.000420
     0.9780      0.000470
     0.9785      0.000440
     0.9790      0.000440
     0.9795      0.000490
     0.9800      0.000420
     0.9805      0.000440
     0.9810      0.000440
     0.9815      0.000440
     0.9820      0.000450
     0.9825      0.000450
     0.9830      0.000440
     0.9835      0.000440
     0.9840      0.000440
     0.9845      0.000470
     0.9850      0.000460
     0.9855      0.000490
     0.9860      0.000470
     0.9865      0.000500
     0.9870      0.000480
     0.9875      0.000510
     0.9880      0.000540
     0.9885      0.000540
     0.9890      0.000550
     0.9895      0.000580
     0.9900      0.000620
     0.9905      0.000650
     0.9910      0.000670
     0.9915      0.000670
     0.9920      0.000740
     0.9925      0.000700
     0.9930      0.000720
     0.9935      0.000750
     0.9940      0.000790
     0.9945      0.000820
     0.9950      0.000840
     0.9955      0.000830
     0.9960      0.000860
     0.9965      0.000910
     0.9970      0.000910
     0.9975      0.000900
     0.9980      0.000890
     0.9985      0.000920
     0.9990      0.000910
     0.9995      0.000950
     1.0000      0.000940
     1.0005      0.000920
     1.0010      0.000980
     1.0015      0.000930
     1.0020      0.000930
     1.0025      0.000950
     1.0030      0.000980
     1.0035      0.000990
     1.0040      0.000960
     1.0045      0.001000
     1.0050      0.001020
     1.0055      0.001020
     1.0060      0.001040
     1.0065      0.001030
     1.0070      0.001060
     1.0075      0.001030
     1.0080      0.001020
     1.0085      0.001070
     1.0090      0.001070
     1.0095      0.001090
     1.0100      0.001120
     1.0105      0.001160
     1.0110      0.001160
     1.0115      0.001200
     1.0120      0.001190
     1.0125      0.001220
     1.0130      0.001220
     1.0135      0.001220
     1.0140      0.001240
     1.0145      0.001230
     1.0150      0.001220
     1.0155      0.001220
     1.0160      0.001220
     1.0165      0.001190
     1.0170      0.001210
     1.0175      0.001180
     1.0180      0.001180
     1.0185      0.001160
     1.0190      0.001170
     1.0195      0.001180
     1.0200      0.001170
     1.0205      0.001160
     1.0210      0.001170
     1.0215      0.001190
     1.0220      0.001210
     1.0225      0.001200
     1.0230      0.001170
     1.0235      0.001210
     1.0240      0.001180
     1.0245      0.001200
     1.0250      0.001170
     1.0255      0.001190
     1.0260      0.001210
     1.0265      0.001180
     1.0270      0.001180
     1.0275      0.001210
     1.0280      0.001190
     1.0285      0.001190
     1.0290      0.001230
     1.0295      0.001220
     1.0300      0.001220
     1.0305      0.001250
     1.0310      0.001260
     1.0315      0.001250
     1.0320      0.001290
     1.0325      0.001300
     1.0330      0.001310
     1.0335      0.001330
     1.0340      0.001370
     1.0345      0.001380
     1.0350      0.001420
     1.0355      0.001440
     1.0360      0.001470
     1.0365      0.001490
     1.0370      0.001460
     1.0375      0.001490
     1.0380      0.001530
     1.0385      0.001510
     1.0390      0.001540
     1.0395      0.001540
     1.0400      0.001570
     1.0405      0.001600
     1.0410      0.001630
     1.0415      0.001610
     1.0420      0.001650
     1.0425      0.001700
     1.0430      0.001720
     1.0435      0.001720
     1.0440      0.001730
     1.0445      0.001740
     1.0450      0.001820
     1.0455      0.001800
     1.0460      0.001850
     1.0465      0.001840
     1.0470      0.001850
     1.0475      0.001920
     1.0480      0.001930
     1.0485      0.001940
     1.0490      0.002000
     1.0495      0.002000
     1.0500      0.002040
     1.0505      0.002070
     1.0510      0.002080
     1.0515      0.002120
     1.0520      0.002160
     1.0525      0.002220
     1.0530      0.002230
     1.0535      0.002270
     1.0540      0.002290
     1.0545      0.002340
     1.0550      0.002340
     1.0555      0.002420
     1.0560      0.002450
     1.0565      0.002480
     1.0570      0.002490
     1.0575      0.002520
     1.0580      0.002600
     1.0585      0.002600
     1.0590      0.002660
     1.0595      0.002720
     1.0600      0.002780
     1.0605      0.002850
     1.0610      0.002870
     1.0615      0.002910
     1.0620      0.002970
     1.0625      0.003060
     1.0630      0.003070
     1.0635      0.003180
     1.0640      0.003160
     1.0645      0.003200
     1.0650      0.003240
     1.0655      0.003320
     1.0660      0.003280
     1.0665      0.003400
     1.0670      0.003410
     1.0675      0.003450
     1.0680      0.003480
     1.0685      0.003510
     1.0690      0.003530
     1.0695      0.003590
     1.0700      0.003610
     1.0705      0.003660
     1.0710      0.003720
     1.0715      0.003820
     1.0720      0.003800
     1.0725      0.003910
     1.0730      0.003880
     1.0735      0.003920
     1.0740      0.003970
     1.0745      0.004080
     1.0750      0.004080
     1.0755      0.004090
     1.0760      0.004140
     1.0765      0.004260
     1.0770      0.004280
     1.0775      0.004370
     1.0780      0.004360
     1.0785      0.004480
     1.0790      0.004500
     1.0795      0.004560
     1.0800      0.004590
     1.0805      0.004670
     1.0810      0.004770
     1.0815      0.004860
     1.0820      0.004840
     1.0825      0.004920
     1.0830      0.005000
     1.0835      0.005100
     1.0840      0.005110
     1.0845      0.005140
     1.0850      0.005220
     1.0855      0.005310
     1.0860      0.005340
     1.0865      0.005400
     1.0870      0.005420
     1.0875      0.005530
     1.0880      0.005560
     1.0885      0.005600
     1.0890      0.005620
     1.0895      0.005660
     1.0900      0.005850
     1.0905      0.005800
     1.0910      0.005970
     1.0915      0.005960
     1.0920      0.006020
     1.0925      0.006080
     1.0930      0.006200
     1.0935      0.006240
     1.0940      0.006370
     1.0945      0.006350
     1.0950      0.006480
     1.0955      0.006550
     1.0960      0.006620
     1.0965      0.006630
     1.0970      0.006910
     1.0975      0.006970
     1.0980      0.006980
     1.0985      0.007030
     1.0990      0.007160
     1.0995      0.007270
     1.1000      0.007280
     1.1005      0.007370
     1.1010      0.007360
     1.1015      0.007630
     1.1020      0.007630
     1.1025      0.007750
     1.1030      0.007850
     1.1035      0.007790
     1.1040      0.008010
     1.1045      0.008180
     1.1050      0.008210
     1.1055      0.008500
     1.1060      0.008620
     1.1065      0.008670
     1.1070      0.008720
     1.1075      0.008910
     1.1080      0.008900
     1.1085      0.008930
     1.1090      0.009230
     1.1095      0.009340
     1.1100      0.009440
     1.1105      0.009730
     1.1110      0.009760
     1.1115      0.009980
     1.1120      0.010030
     1.1125      0.010230
     1.1130      0.010370
     1.1135      0.010590
     1.1140      0.010570
     1.1145      0.010760
     1.1150      0.010730
     1.1155      0.010830
     1.1160      0.011040
     1.1165      0.011270
     1.1170      0.011550
     1.1175      0.011700
     1.1180      0.012000
     1.1185      0.012070
     1.1190      0.012340
     1.1195      0.012470
     1.1200      0.012400
     1.1205      0.012640
     1.1210      0.012780
     1.1215      0.012770
     1.1220      0.012730
     1.1225      0.013110
     1.1230      0.013430
     1.1235      0.013880
     1.1240      0.014290
     1.1245      0.014740
     1.1250      0.014870
     1.1255      0.015130
     1.1260      0.015360
     1.1265      0.015200
     1.1270      0.015200
     1.1275      0.014960
     1.1280      0.014700
     1.1285      0.014810
     1.1290      0.015320
     1.1295      0.015250
     1.1300      0.015860
     1.1305      0.015950
     1.1310      0.016520
     1.1315      0.017510
     1.1320      0.017810
     1.1325      0.018370
     1.1330      0.019000
     1.1335      0.019490
     1.1340      0.019610
     1.1345      0.020040
     1.1350      0.019930
     1.1355      0.019800
     1.1360      0.020330
     1.1365      0.019950
     1.1370      0.020050
     1.1375      0.020040
     1.1380      0.020240
     1.1385      0.019920
     1.1390      0.019550
     1.1395      0.018540
     1.1400      0.017870
     1.1405      0.016810
     1.1410      0.014880
     1.1415      0.013360
     1.1420      0.011150
     1.1425      0.009130
     1.1430      0.007610
     1.1435      0.006080
     1.1440      0.004920
     1.1445      0.004350
     1.1450      0.003290
     1.1455      0.002400
     1.1460      0.001830
     1.1465      0.001860
     1.1470      0.001500
     1.1475      0.001360
     1.1480      0.001180
     1.1485      0.001190
     1.1490      0.000960
     1.1495      0.000360
     1.1500      0.000340
     1.1505      0.000280
     1.1510      0.000170
     1.1515      0.000270
     1.1520      0.000270
     1.1525      0.000000
     1.1530      0.000000
     1.1535      0.000050
     1.1540      0.000080
     1.1545      0.000020
     1.1550      0.000000
     1.1555      0.000020
     1.1560      0.000280
     1.1565      0.000000
     1.1570      0.000000
     1.1575      0.000030
     1.1580      0.000000
     1.1585      0.000000
     1.1590      0.000160
     1.1595      0.000000
     1.1600      0.000000
     1.1605      0.000000
     1.1610      0.000000
     1.1615      0.000000
     1.1620      0.000080
     1.1625      0.000010
