# author : Oliver Czoske
# source : Ester Aranzana
# date_created : 2017-11-20
# date_modified : 2025-12-06
# status : Measured at 80 K
# wavelength_unit : um
# changes :
# - 2022-03-17 (KL) Updated to match Rics email
# - 2023-06-06 (RD) Modified profiles after discussion with Schott
# - 2025-12-16 (OC) Replaced with measured values
#
 wavelength  transmission
     0.4990      0.000000
     0.4995      0.000000
     0.5000      0.005950
     0.5005      0.000000
     0.5010      0.000130
     0.5015      0.000150
     0.5020      0.001560
     0.5025      0.005870
     0.5030      0.003240
     0.5035      0.008610
     0.5040      0.008390
     0.5045      0.013180
     0.5050      0.017010
     0.5055      0.013450
     0.5060      0.016530
     0.5065      0.027990
     0.5070      0.022470
     0.5075      0.026570
     0.5080      0.027810
     0.5085      0.020130
     0.5090      0.007020
     0.5095      0.012460
     0.5100      0.026930
     0.5105      0.024930
     0.5110      0.020790
     0.5115      0.019080
     0.5120      0.026560
     0.5125      0.015120
     0.5130      0.022420
     0.5135      0.014890
     0.5140      0.005370
     0.5145      0.006220
     0.5150      0.013290
     0.5155      0.017760
     0.5160      0.016410
     0.5165      0.006660
     0.5170      0.009980
     0.5175      0.003560
     0.5180      0.007710
     0.5185      0.008820
     0.5190      0.007800
     0.5195      0.006650
     0.5200      0.007320
     0.5205      0.001610
     0.5210      0.009270
     0.5215      0.011750
     0.5220      0.004780
     0.5225      0.005310
     0.5230      0.000000
     0.5235      0.000120
     0.5240      0.000060
     0.5245      0.003300
     0.5250      0.000000
     0.5255      0.000000
     0.5260      0.002820
     0.5265      0.001330
     0.5270      0.004210
     0.5275      0.002770
     0.5280      0.007900
     0.5285      0.008820
     0.5290      0.000840
     0.5295      0.001230
     0.5300      0.000000
     0.5305      0.004830
     0.5310      0.008100
     0.5315      0.013230
     0.5320      0.035810
     0.5325      0.094420
     0.5330      0.175350
     0.5335      0.228260
     0.5340      0.245470
     0.5345      0.266500
     0.5350      0.272790
     0.5355      0.241240
     0.5360      0.223800
     0.5365      0.236840
     0.5370      0.239540
     0.5375      0.191030
     0.5380      0.138820
     0.5385      0.109010
     0.5390      0.113590
     0.5395      0.142230
     0.5400      0.221940
     0.5405      0.352470
     0.5410      0.444000
     0.5415      0.468320
     0.5420      0.492530
     0.5425      0.546720
     0.5430      0.577390
     0.5435      0.537830
     0.5440      0.499950
     0.5445      0.493470
     0.5450      0.469970
     0.5455      0.387870
     0.5460      0.299190
     0.5465      0.237520
     0.5470      0.217590
     0.5475      0.238680
     0.5480      0.305980
     0.5485      0.424640
     0.5490      0.524640
     0.5495      0.535890
     0.5500      0.482700
     0.5505      0.455640
     0.5510      0.484660
     0.5515      0.535860
     0.5520      0.561980
     0.5525      0.534520
     0.5530      0.482400
     0.5535      0.450940
     0.5540      0.460000
     0.5545      0.484220
     0.5550      0.495820
     0.5555      0.483380
     0.5560      0.468990
     0.5565      0.475010
     0.5570      0.505190
     0.5575      0.516640
     0.5580      0.492340
     0.5585      0.447990
     0.5590      0.431350
     0.5595      0.466480
     0.5600      0.531150
     0.5605      0.478960
     0.5610      0.304220
     0.5615      0.176430
     0.5620      0.116880
     0.5625      0.092860
     0.5630      0.090360
     0.5635      0.092950
     0.5640      0.111780
     0.5645      0.163310
     0.5650      0.260370
     0.5655      0.400090
     0.5660      0.502450
     0.5665      0.523670
     0.5670      0.521520
     0.5675      0.525710
     0.5680      0.499980
     0.5685      0.439640
     0.5690      0.372730
     0.5695      0.332020
     0.5700      0.325120
     0.5705      0.353960
     0.5710      0.429220
     0.5715      0.542490
     0.5720      0.655120
     0.5725      0.669750
     0.5730      0.594740
     0.5735      0.490330
     0.5740      0.405170
     0.5745      0.348520
     0.5750      0.307550
     0.5755      0.280120
     0.5760      0.261890
     0.5765      0.256320
     0.5770      0.254050
     0.5775      0.252590
     0.5780      0.240820
     0.5785      0.222790
     0.5790      0.207830
     0.5795      0.205850
     0.5800      0.221600
     0.5805      0.268620
     0.5810      0.362220
     0.5815      0.502490
     0.5820      0.634040
     0.5825      0.680460
     0.5830      0.674340
     0.5835      0.631270
     0.5840      0.534370
     0.5845      0.397830
     0.5850      0.289560
     0.5855      0.233410
     0.5860      0.220070
     0.5865      0.253240
     0.5870      0.348020
     0.5875      0.491480
     0.5880      0.494480
     0.5885      0.332500
     0.5890      0.220420
     0.5895      0.174600
     0.5900      0.170340
     0.5905      0.195590
     0.5910      0.260120
     0.5915      0.367640
     0.5920      0.475730
     0.5925      0.509720
     0.5930      0.480720
     0.5935      0.435750
     0.5940      0.385460
     0.5945      0.339720
     0.5950      0.308350
     0.5955      0.298750
     0.5960      0.314760
     0.5965      0.350730
     0.5970      0.375160
     0.5975      0.343000
     0.5980      0.283030
     0.5985      0.236840
     0.5990      0.220570
     0.5995      0.237550
     0.6000      0.282440
     0.6005      0.352890
     0.6010      0.420680
     0.6015      0.466610
     0.6020      0.506120
     0.6025      0.531610
     0.6030      0.492270
     0.6035      0.375680
     0.6040      0.270030
     0.6045      0.218160
     0.6050      0.211150
     0.6055      0.252160
     0.6060      0.310880
     0.6065      0.272760
     0.6070      0.157230
     0.6075      0.089770
     0.6080      0.061610
     0.6085      0.052220
     0.6090      0.052270
     0.6095      0.063290
     0.6100      0.096470
     0.6105      0.178980
     0.6110      0.339450
     0.6115      0.454790
     0.6120      0.437530
     0.6125      0.381050
     0.6130      0.264990
     0.6135      0.139010
     0.6140      0.070380
     0.6145      0.041730
     0.6150      0.029060
     0.6155      0.022450
     0.6160      0.016280
     0.6165      0.010670
     0.6170      0.006690
     0.6175      0.003320
     0.6180      0.001620
     0.6185      0.001700
     0.6190      0.002260
     0.6195      0.002520
     0.6200      0.002600
     0.6205      0.000120
     0.6210      0.000240
     0.6215      0.000000
     0.6220      0.000000
     0.6225      0.000000
     0.6230      0.000000
     0.6235      0.000000
     0.6240      0.000000
     0.6245      0.000000
     0.6250      0.000000
     0.6255      0.000000
     0.6260      0.000000
     0.6265      0.000000
     0.6270      0.000000
     0.6275      0.000000
     0.6280      0.000000
     0.6285      0.000000
     0.6290      0.000000
     0.6295      0.000000
     0.6300      0.000000
     0.6305      0.000000
     0.6310      0.000400
     0.6315      0.000770
     0.6320      0.002390
     0.6325      0.004210
     0.6330      0.017060
     0.6335      0.001440
     0.6340      0.001430
     0.6345      0.000130
     0.6350      0.000170
     0.6355      0.000000
     0.6360      0.000000
     0.6365      0.000000
     0.6370      0.000000
     0.6375      0.000000
     0.6380      0.000000
     0.6385      0.000210
     0.6390      0.000210
     0.6395      0.000810
     0.6400      0.000860
     0.6405      0.000660
     0.6410      0.001110
     0.6415      0.000690
     0.6420      0.000470
     0.6425      0.000030
     0.6430      0.000000
     0.6435      0.000030
     0.6440      0.000560
     0.6445      0.000500
     0.6450      0.000480
     0.6455      0.000230
     0.6460      0.000050
     0.6465      0.000000
     0.6470      0.000000
     0.6475      0.000000
     0.6480      0.000000
     0.6485      0.000000
     0.6490      0.000000
     0.6495      0.000000
     0.6500      0.000510
     0.6505      0.001220
     0.6510      0.001040
     0.6515      0.000640
     0.6520      0.001000
     0.6525      0.001490
     0.6530      0.001670
     0.6535      0.001430
     0.6540      0.000730
     0.6545      0.000900
     0.6550      0.001310
     0.6555      0.003070
     0.6560      0.007160
     0.6565      0.014250
     0.6570      0.012680
     0.6575      0.007050
     0.6580      0.004720
     0.6585      0.004380
     0.6590      0.004610
     0.6595      0.005940
     0.6600      0.008200
     0.6605      0.011460
     0.6610      0.016340
     0.6615      0.020380
     0.6620      0.021000
     0.6625      0.020020
     0.6630      0.020460
     0.6635      0.022800
     0.6640      0.029120
     0.6645      0.043280
     0.6650      0.070390
     0.6655      0.112810
     0.6660      0.152310
     0.6665      0.168260
     0.6670      0.174080
     0.6675      0.192630
     0.6680      0.239940
     0.6685      0.331590
     0.6690      0.474170
     0.6695      0.616260
     0.6700      0.656860
     0.6705      0.605150
     0.6710      0.542150
     0.6715      0.494770
     0.6720      0.454860
     0.6725      0.408220
     0.6730      0.355110
     0.6735      0.307940
     0.6740      0.275530
     0.6745      0.260590
     0.6750      0.260730
     0.6755      0.269730
     0.6760      0.269080
     0.6765      0.241620
     0.6770      0.193040
     0.6775      0.146940
     0.6780      0.114190
     0.6785      0.095550
     0.6790      0.086750
     0.6795      0.085170
     0.6800      0.091220
     0.6805      0.107550
     0.6810      0.140440
     0.6815      0.200790
     0.6820      0.303030
     0.6825      0.446770
     0.6830      0.575840
     0.6835      0.622250
     0.6840      0.609710
     0.6845      0.594100
     0.6850      0.594020
     0.6855      0.600090
     0.6860      0.596730
     0.6865      0.579670
     0.6870      0.556880
     0.6875      0.539550
     0.6880      0.526320
     0.6885      0.502870
     0.6890      0.453300
     0.6895      0.382290
     0.6900      0.312440
     0.6905      0.260520
     0.6910      0.232040
     0.6915      0.226280
     0.6920      0.242700
     0.6925      0.283390
     0.6930      0.342810
     0.6935      0.383900
     0.6940      0.353740
     0.6945      0.271320
     0.6950      0.198240
     0.6955      0.152420
     0.6960      0.128690
     0.6965      0.119230
     0.6970      0.120250
     0.6975      0.129980
     0.6980      0.147850
     0.6985      0.172620
     0.6990      0.200160
     0.6995      0.225780
     0.7000      0.246550
     0.7005      0.263610
     0.7010      0.275170
     0.7015      0.270030
     0.7020      0.241310
     0.7025      0.197430
     0.7030      0.154910
     0.7035      0.123550
     0.7040      0.104250
     0.7045      0.095160
     0.7050      0.094600
     0.7055      0.103220
     0.7060      0.121350
     0.7065      0.148860
     0.7070      0.177600
     0.7075      0.189950
     0.7080      0.173810
     0.7085      0.142900
     0.7090      0.115060
     0.7095      0.096020
     0.7100      0.083750
     0.7105      0.076760
     0.7110      0.073680
     0.7115      0.073430
     0.7120      0.075050
     0.7125      0.077810
     0.7130      0.082740
     0.7135      0.087780
     0.7140      0.089110
     0.7145      0.083310
     0.7150      0.071210
     0.7155      0.057310
     0.7160      0.046360
     0.7165      0.039610
     0.7170      0.037020
     0.7175      0.037520
     0.7180      0.038920
     0.7185      0.035860
     0.7190      0.026250
     0.7195      0.016190
     0.7200      0.009540
     0.7205      0.005950
     0.7210      0.004170
     0.7215      0.003260
     0.7220      0.002780
     0.7225      0.002650
     0.7230      0.002670
     0.7235      0.003070
     0.7240      0.003930
     0.7245      0.005130
     0.7250      0.005750
     0.7255      0.004680
     0.7260      0.003040
     0.7265      0.001830
     0.7270      0.001260
     0.7275      0.000890
     0.7280      0.000840
     0.7285      0.000800
     0.7290      0.000650
     0.7295      0.000370
     0.7300      0.000120
     0.7305      0.000000
     0.7310      0.000000
     0.7315      0.000000
     0.7320      0.000000
     0.7325      0.000000
     0.7330      0.000000
     0.7335      0.000000
     0.7340      0.000000
     0.7345      0.000000
     0.7350      0.000000
     0.7355      0.000000
     0.7360      0.000000
     0.7365      0.000000
     0.7370      0.000000
     0.7375      0.000000
     0.7380      0.000000
     0.7385      0.000000
     0.7390      0.000000
     0.7395      0.000000
     0.7400      0.000000
     0.7405      0.000000
     0.7410      0.000000
     0.7415      0.000000
     0.7420      0.000000
     0.7425      0.000000
     0.7430      0.000000
     0.7435      0.000040
     0.7440      0.000180
     0.7445      0.000250
     0.7450      0.000220
     0.7455      0.000330
     0.7460      0.000210
     0.7465      0.000160
     0.7470      0.000220
     0.7475      0.000180
     0.7480      0.000180
     0.7485      0.000150
     0.7490      0.000200
     0.7495      0.000330
     0.7500      0.000530
     0.7505      0.000420
     0.7510      0.000230
     0.7515      0.000140
     0.7520      0.000230
     0.7525      0.000210
     0.7530      0.000230
     0.7535      0.000110
     0.7540      0.000130
     0.7545      0.000000
     0.7550      0.000010
     0.7555      0.000000
     0.7560      0.000000
     0.7565      0.000000
     0.7570      0.000010
     0.7575      0.000000
     0.7580      0.000000
     0.7585      0.000000
     0.7590      0.000000
     0.7595      0.000000
     0.7600      0.000000
     0.7605      0.000000
     0.7610      0.000000
     0.7615      0.000000
     0.7620      0.000000
     0.7625      0.000000
     0.7630      0.000000
     0.7635      0.000000
     0.7640      0.000110
     0.7645      0.000240
     0.7650      0.000170
     0.7655      0.000100
     0.7660      0.000160
     0.7665      0.000080
     0.7670      0.000050
     0.7675      0.000090
     0.7680      0.000080
     0.7685      0.000220
     0.7690      0.000280
     0.7695      0.000330
     0.7700      0.000420
     0.7705      0.000320
     0.7710      0.000410
     0.7715      0.000520
     0.7720      0.000550
     0.7725      0.000650
     0.7730      0.000580
     0.7735      0.000680
     0.7740      0.000570
     0.7745      0.000500
     0.7750      0.000470
     0.7755      0.000310
     0.7760      0.000300
     0.7765      0.000290
     0.7770      0.000280
     0.7775      0.000270
     0.7780      0.000260
     0.7785      0.000310
     0.7790      0.000270
     0.7795      0.000220
     0.7800      0.000180
     0.7805      0.000210
     0.7810      0.000210
     0.7815      0.000260
     0.7820      0.000320
     0.7825      0.000350
     0.7830      0.000320
     0.7835      0.000300
     0.7840      0.000270
     0.7845      0.000280
     0.7850      0.000180
     0.7855      0.000190
     0.7860      0.000200
     0.7865      0.000180
     0.7870      0.000280
     0.7875      0.000220
     0.7880      0.000300
     0.7885      0.000370
     0.7890      0.000460
     0.7895      0.000500
     0.7900      0.000620
     0.7905      0.000610
     0.7910      0.000630
     0.7915      0.000600
     0.7920      0.000670
     0.7925      0.000610
     0.7930      0.000490
     0.7935      0.000510
     0.7940      0.000570
     0.7945      0.000600
     0.7950      0.000470
     0.7955      0.000440
     0.7960      0.000550
     0.7965      0.000520
     0.7970      0.000480
     0.7975      0.000470
     0.7980      0.000430
     0.7985      0.000330
     0.7990      0.000380
     0.7995      0.000300
     0.8000      0.000350
     0.8005      0.000260
     0.8010      0.000280
     0.8015      0.000270
     0.8020      0.000300
     0.8025      0.000230
     0.8030      0.000290
     0.8035      0.000370
     0.8040      0.000360
     0.8045      0.000180
     0.8050      0.000300
     0.8055      0.000200
     0.8060      0.000140
     0.8065      0.000140
     0.8070      0.000040
     0.8075      0.000070
     0.8080      0.000020
     0.8085      0.000050
     0.8090      0.000030
     0.8095      0.000090
     0.8100      0.000150
     0.8105      0.000140
     0.8110      0.000160
     0.8115      0.000080
     0.8120      0.000150
     0.8125      0.000220
     0.8130      0.000190
     0.8135      0.000250
     0.8140      0.000210
     0.8145      0.000260
     0.8150      0.000250
     0.8155      0.000180
     0.8160      0.000180
     0.8165      0.000200
     0.8170      0.000190
     0.8175      0.000100
     0.8180      0.000050
     0.8185      0.000040
     0.8190      0.000010
     0.8195      0.000080
     0.8200      0.000080
     0.8205      0.000130
     0.8210      0.000150
     0.8215      0.000200
     0.8220      0.000220
     0.8225      0.000210
     0.8230      0.000200
     0.8235      0.000190
     0.8240      0.000190
     0.8245      0.000110
     0.8250      0.000070
     0.8255      0.000070
     0.8260      0.000100
     0.8265      0.000110
     0.8270      0.000080
     0.8275      0.000100
     0.8280      0.000210
     0.8285      0.000180
     0.8290      0.000210
     0.8295      0.000270
     0.8300      0.000320
     0.8305      0.000290
     0.8310      0.000280
     0.8315      0.000280
     0.8320      0.000260
     0.8325      0.000170
     0.8330      0.000170
     0.8335      0.000140
     0.8340      0.000060
     0.8345      0.000170
     0.8350      0.000140
     0.8355      0.000210
     0.8360      0.000160
     0.8365      0.000220
     0.8370      0.000270
     0.8375      0.000230
     0.8380      0.000240
     0.8385      0.000220
     0.8390      0.000320
     0.8395      0.000220
     0.8400      0.000290
     0.8405      0.000280
     0.8410      0.000220
     0.8415      0.000230
     0.8420      0.000210
     0.8425      0.000210
     0.8430      0.000200
     0.8435      0.000140
     0.8440      0.000220
     0.8445      0.000150
     0.8450      0.000240
     0.8455      0.000160
     0.8460      0.000190
     0.8465      0.000180
     0.8470      0.000190
     0.8475      0.000100
     0.8480      0.000210
     0.8485      0.000080
     0.8490      0.000120
     0.8495      0.000080
     0.8500      0.000130
     0.8505      0.000090
     0.8510      0.000130
     0.8515      0.000140
     0.8520      0.000120
     0.8525      0.000110
     0.8530      0.000100
     0.8535      0.000090
     0.8540      0.000080
     0.8545      0.000060
     0.8550      0.000070
     0.8555      0.000030
     0.8560      0.000010
     0.8565      0.000020
     0.8570      0.000010
     0.8575      0.000010
     0.8580      0.000020
     0.8585      0.000070
     0.8590      0.000040
     0.8595      0.000020
     0.8600      0.000000
     0.8605      0.000000
     0.8610      0.000070
     0.8615      0.000020
     0.8620      0.000000
     0.8625      0.000000
     0.8630      0.000000
     0.8635      0.000000
     0.8640      0.000000
     0.8645      0.000000
     0.8650      0.000000
     0.8655      0.000000
     0.8660      0.000000
     0.8665      0.000000
     0.8670      0.000000
     0.8675      0.000000
     0.8680      0.000020
     0.8685      0.000020
     0.8690      0.000000
     0.8695      0.000000
     0.8700      0.000000
     0.8705      0.000030
     0.8710      0.000000
     0.8715      0.000000
     0.8720      0.000070
     0.8725      0.000110
     0.8730      0.000090
     0.8735      0.000080
     0.8740      0.000080
     0.8745      0.000090
     0.8750      0.000050
     0.8755      0.000130
     0.8760      0.000060
     0.8765      0.000040
     0.8770      0.000070
     0.8775      0.000090
     0.8780      0.000070
     0.8785      0.000090
     0.8790      0.000100
     0.8795      0.000110
     0.8800      0.000120
     0.8805      0.000130
     0.8810      0.000140
     0.8815      0.000150
     0.8820      0.000110
     0.8825      0.000110
     0.8830      0.000060
     0.8835      0.000090
     0.8840      0.000090
     0.8845      0.000050
     0.8850      0.000050
     0.8855      0.000060
     0.8860      0.000030
     0.8865      0.000050
     0.8870      0.000060
     0.8875      0.000010
     0.8880      0.000040
     0.8885      0.000020
     0.8890      0.000040
     0.8895      0.000040
     0.8900      0.000040
     0.8905      0.000060
     0.8910      0.000090
     0.8915      0.000050
     0.8920      0.000000
     0.8925      0.000040
     0.8930      0.000030
     0.8935      0.000040
     0.8940      0.000050
     0.8945      0.000050
     0.8950      0.000000
     0.8955      0.000010
     0.8960      0.000030
     0.8965      0.000020
     0.8970      0.000050
     0.8975      0.000030
     0.8980      0.000080
     0.8985      0.000070
     0.8990      0.000050
     0.8995      0.000030
     0.9000      0.000020
     0.9005      0.000020
     0.9010      0.000010
     0.9015      0.000050
     0.9020      0.000010
     0.9025      0.000040
     0.9030      0.000020
     0.9035      0.000000
     0.9040      0.000020
     0.9045      0.000000
     0.9050      0.000030
     0.9055      0.000000
     0.9060      0.000030
     0.9065      0.000000
     0.9070      0.000020
     0.9075      0.000000
     0.9080      0.000030
     0.9085      0.000050
     0.9090      0.000030
     0.9095      0.000040
     0.9100      0.000060
     0.9105      0.000050
     0.9110      0.000080
     0.9115      0.000090
     0.9120      0.000140
     0.9125      0.000240
     0.9130      0.000430
     0.9135      0.000740
     0.9140      0.001330
     0.9145      0.002230
     0.9150      0.003410
     0.9155      0.004430
     0.9160      0.004020
     0.9165      0.002340
     0.9170      0.001000
     0.9175      0.000480
     0.9180      0.000260
     0.9185      0.000150
     0.9190      0.000050
     0.9195      0.000010
     0.9200      0.000000
     0.9205      0.000040
     0.9210      0.000000
     0.9215      0.000000
     0.9220      0.000000
     0.9225      0.000020
     0.9230      0.000000
     0.9235      0.000010
     0.9240      0.000010
     0.9245      0.000000
     0.9250      0.000000
     0.9255      0.000000
     0.9260      0.000000
     0.9265      0.000000
     0.9270      0.000020
     0.9275      0.000050
     0.9280      0.000060
     0.9285      0.000100
     0.9290      0.000080
     0.9295      0.000100
     0.9300      0.000080
     0.9305      0.000070
     0.9310      0.000040
     0.9315      0.000010
     0.9320      0.000020
     0.9325      0.000010
     0.9330      0.000030
     0.9335      0.000030
     0.9340      0.000020
     0.9345      0.000020
     0.9350      0.000010
     0.9355      0.000000
     0.9360      0.000000
     0.9365      0.000020
     0.9370      0.000020
     0.9375      0.000010
     0.9380      0.000000
     0.9385      0.000020
     0.9390      0.000000
     0.9395      0.000010
     0.9400      0.000010
     0.9405      0.000030
     0.9410      0.000000
     0.9415      0.000000
     0.9420      0.000010
     0.9425      0.000000
     0.9430      0.000000
     0.9435      0.000000
     0.9440      0.000000
     0.9445      0.000000
     0.9450      0.000000
     0.9455      0.000000
     0.9460      0.000020
     0.9465      0.000020
     0.9470      0.000010
     0.9475      0.000030
     0.9480      0.000010
     0.9485      0.000030
     0.9490      0.000060
     0.9495      0.000070
     0.9500      0.000090
     0.9505      0.000130
     0.9510      0.000190
     0.9515      0.000220
     0.9520      0.000210
     0.9525      0.000170
     0.9530      0.000110
     0.9535      0.000090
     0.9540      0.000040
     0.9545      0.000010
     0.9550      0.000010
     0.9555      0.000010
     0.9560      0.000010
     0.9565      0.000010
     0.9570      0.000010
     0.9575      0.000000
     0.9580      0.000020
     0.9585      0.000030
     0.9590      0.000010
     0.9595      0.000020
     0.9600      0.000020
     0.9605      0.000010
     0.9610      0.000020
     0.9615      0.000020
     0.9620      0.000020
     0.9625      0.000020
     0.9630      0.000020
     0.9635      0.000010
     0.9640      0.000020
     0.9645      0.000040
     0.9650      0.000020
     0.9655      0.000040
     0.9660      0.000030
     0.9665      0.000040
     0.9670      0.000020
     0.9675      0.000030
     0.9680      0.000030
     0.9685      0.000030
     0.9690      0.000000
     0.9695      0.000030
     0.9700      0.000020
     0.9705      0.000030
     0.9710      0.000010
     0.9715      0.000040
     0.9720      0.000030
     0.9725      0.000020
     0.9730      0.000020
     0.9735      0.000020
     0.9740      0.000010
     0.9745      0.000030
     0.9750      0.000030
     0.9755      0.000070
     0.9760      0.000030
     0.9765      0.000030
     0.9770      0.000020
     0.9775      0.000030
     0.9780      0.000010
     0.9785      0.000000
     0.9790      0.000000
     0.9795      0.000010
     0.9800      0.000000
     0.9805      0.000000
     0.9810      0.000000
     0.9815      0.000000
     0.9820      0.000000
     0.9825      0.000000
     0.9830      0.000000
     0.9835      0.000000
     0.9840      0.000000
     0.9845      0.000000
     0.9850      0.000010
     0.9855      0.000000
     0.9860      0.000020
     0.9865      0.000010
     0.9870      0.000010
     0.9875      0.000010
     0.9880      0.000020
     0.9885      0.000030
     0.9890      0.000040
     0.9895      0.000050
     0.9900      0.000060
     0.9905      0.000070
     0.9910      0.000090
     0.9915      0.000110
     0.9920      0.000140
     0.9925      0.000140
     0.9930      0.000150
     0.9935      0.000140
     0.9940      0.000110
     0.9945      0.000080
     0.9950      0.000080
     0.9955      0.000060
     0.9960      0.000050
     0.9965      0.000050
     0.9970      0.000030
     0.9975      0.000020
     0.9980      0.000030
     0.9985      0.000050
     0.9990      0.000040
     0.9995      0.000040
     1.0000      0.000050
     1.0005      0.000040
     1.0010      0.000050
     1.0015      0.000040
     1.0020      0.000060
     1.0025      0.000060
     1.0030      0.000060
     1.0035      0.000070
     1.0040      0.000040
     1.0045      0.000040
     1.0050      0.000050
     1.0055      0.000030
     1.0060      0.000020
     1.0065      0.000020
     1.0070      0.000020
     1.0075      0.000010
     1.0080      0.000020
     1.0085      0.000010
     1.0090      0.000000
     1.0095      0.000000
     1.0100      0.000000
     1.0105      0.000010
     1.0110      0.000010
     1.0115      0.000020
     1.0120      0.000030
     1.0125      0.000020
     1.0130      0.000010
     1.0135      0.000020
     1.0140      0.000010
     1.0145      0.000030
     1.0150      0.000030
     1.0155      0.000040
     1.0160      0.000060
     1.0165      0.000060
     1.0170      0.000070
     1.0175      0.000060
     1.0180      0.000050
     1.0185      0.000050
     1.0190      0.000030
     1.0195      0.000040
     1.0200      0.000040
     1.0205      0.000020
     1.0210      0.000030
     1.0215      0.000030
     1.0220      0.000040
     1.0225      0.000040
     1.0230      0.000020
     1.0235      0.000040
     1.0240      0.000020
     1.0245      0.000040
     1.0250      0.000040
     1.0255      0.000030
     1.0260      0.000020
     1.0265      0.000010
     1.0270      0.000010
     1.0275      0.000030
     1.0280      0.000040
     1.0285      0.000030
     1.0290      0.000030
     1.0295      0.000010
     1.0300      0.000000
     1.0305      0.000030
     1.0310      0.000030
     1.0315      0.000040
     1.0320      0.000040
     1.0325      0.000050
     1.0330      0.000020
     1.0335      0.000040
     1.0340      0.000020
     1.0345      0.000040
     1.0350      0.000040
     1.0355      0.000020
     1.0360      0.000050
     1.0365      0.000040
     1.0370      0.000030
     1.0375      0.000030
     1.0380      0.000040
     1.0385      0.000060
     1.0390      0.000050
     1.0395      0.000050
     1.0400      0.000060
     1.0405      0.000030
     1.0410      0.000050
     1.0415      0.000080
     1.0420      0.000080
     1.0425      0.000110
     1.0430      0.000130
     1.0435      0.000150
     1.0440      0.000210
     1.0445      0.000220
     1.0450      0.000260
     1.0455      0.000260
     1.0460      0.000270
     1.0465      0.000250
     1.0470      0.000220
     1.0475      0.000180
     1.0480      0.000150
     1.0485      0.000150
     1.0490      0.000120
     1.0495      0.000090
     1.0500      0.000100
     1.0505      0.000090
     1.0510      0.000070
     1.0515      0.000090
     1.0520      0.000060
     1.0525      0.000070
     1.0530      0.000080
     1.0535      0.000080
     1.0540      0.000080
     1.0545      0.000070
     1.0550      0.000090
     1.0555      0.000110
     1.0560      0.000100
     1.0565      0.000090
     1.0570      0.000100
     1.0575      0.000110
     1.0580      0.000120
     1.0585      0.000130
     1.0590      0.000150
     1.0595      0.000150
     1.0600      0.000150
     1.0605      0.000110
     1.0610      0.000090
     1.0615      0.000080
     1.0620      0.000070
     1.0625      0.000080
     1.0630      0.000080
     1.0635      0.000060
     1.0640      0.000050
     1.0645      0.000070
     1.0650      0.000050
     1.0655      0.000060
     1.0660      0.000040
     1.0665      0.000070
     1.0670      0.000050
     1.0675      0.000100
     1.0680      0.000070
     1.0685      0.000060
     1.0690      0.000070
     1.0695      0.000080
     1.0700      0.000090
     1.0705      0.000080
     1.0710      0.000070
     1.0715      0.000050
     1.0720      0.000030
     1.0725      0.000080
     1.0730      0.000060
     1.0735      0.000060
     1.0740      0.000050
     1.0745      0.000040
     1.0750      0.000030
     1.0755      0.000080
     1.0760      0.000060
     1.0765      0.000080
     1.0770      0.000050
     1.0775      0.000030
     1.0780      0.000030
     1.0785      0.000030
     1.0790      0.000010
     1.0795      0.000020
     1.0800      0.000020
     1.0805      0.000020
     1.0810      0.000050
     1.0815      0.000010
     1.0820      0.000040
     1.0825      0.000010
     1.0830      0.000030
     1.0835      0.000040
     1.0840      0.000060
     1.0845      0.000090
     1.0850      0.000050
     1.0855      0.000140
     1.0860      0.000120
     1.0865      0.000170
     1.0870      0.000220
     1.0875      0.000240
     1.0880      0.000260
     1.0885      0.000300
     1.0890      0.000340
     1.0895      0.000370
     1.0900      0.000390
     1.0905      0.000390
     1.0910      0.000420
     1.0915      0.000360
     1.0920      0.000370
     1.0925      0.000400
     1.0930      0.000380
     1.0935      0.000400
     1.0940      0.000450
     1.0945      0.000460
     1.0950      0.000540
     1.0955      0.000640
     1.0960      0.000760
     1.0965      0.000970
     1.0970      0.001180
     1.0975      0.001500
     1.0980      0.001990
     1.0985      0.002610
     1.0990      0.003230
     1.0995      0.003800
     1.1000      0.004180
     1.1005      0.004140
     1.1010      0.003820
     1.1015      0.003460
     1.1020      0.003020
     1.1025      0.002640
     1.1030      0.002320
     1.1035      0.002150
     1.1040      0.001940
     1.1045      0.001820
     1.1050      0.001760
     1.1055      0.001610
     1.1060      0.001620
     1.1065      0.001600
     1.1070      0.001610
     1.1075      0.001650
     1.1080      0.001740
     1.1085      0.001860
     1.1090      0.001950
     1.1095      0.002070
     1.1100      0.002250
     1.1105      0.002400
     1.1110      0.002510
     1.1115      0.001010
     1.1120      0.001140
     1.1125      0.000710
     1.1130      0.000040
     1.1135      0.000000
     1.1140      0.000000
     1.1145      0.000140
     1.1150      0.001510
     1.1155      0.002380
     1.1160      0.000400
     1.1165      0.002310
     1.1170      0.000000
     1.1175      0.000000
     1.1180      0.001710
     1.1185      0.000000
     1.1190      0.000000
     1.1195      0.001080
     1.1200      0.001490
     1.1205      0.000000
     1.1210      0.000000
     1.1215      0.000290
     1.1220      0.001260
     1.1225      0.000180
     1.1230      0.000180
     1.1235      0.000110
     1.1240      0.001370
     1.1245      0.000000
     1.1250      0.000000
     1.1255      0.000010
     1.1260      0.001720
     1.1265      0.000030
     1.1270      0.001630
     1.1275      0.000000
     1.1280      0.000110
     1.1285      0.002500
     1.1290      0.001500
     1.1295      0.000000
     1.1300      0.000690
     1.1305      0.000700
     1.1310      0.001690
     1.1315      0.003970
     1.1320      0.001410
     1.1325      0.002400
     1.1330      0.003680
     1.1335      0.001980
     1.1340      0.002500
     1.1345      0.005790
     1.1350      0.003090
     1.1355      0.003670
     1.1360      0.006870
     1.1365      0.010220
     1.1370      0.010620
     1.1375      0.014050
     1.1380      0.010760
     1.1385      0.004170
     1.1390      0.003070
     1.1395      0.001190
     1.1400      0.001840
     1.1405      0.003480
     1.1410      0.003590
     1.1415      0.001040
     1.1420      0.000260
     1.1425      0.000440
     1.1430      0.002030
     1.1435      0.003450
     1.1440      0.001720
     1.1445      0.000000
     1.1450      0.000000
     1.1455      0.001890
     1.1460      0.002260
     1.1465      0.002430
     1.1470      0.000790
     1.1475      0.001970
     1.1480      0.002020
     1.1485      0.002330
     1.1490      0.001240
     1.1495      0.003470
     1.1500      0.001740
     1.1505      0.001890
     1.1510      0.001300
     1.1515      0.002760
     1.1520      0.002620
     1.1525      0.000000
     1.1530      0.002400
     1.1535      0.000170
     1.1540      0.000000
     1.1545      0.000050
     1.1550      0.002230
     1.1555      0.005020
     1.1560      0.005530
     1.1565      0.006050
     1.1570      0.002860
     1.1575      0.002110
     1.1580      0.000000
     1.1585      0.000040
     1.1590      0.000130
     1.1595      0.001740
     1.1600      0.002080
     1.1605      0.000010
     1.1610      0.002390
     1.1615      0.000000
     1.1620      0.002080
     1.1625      0.002380
     1.1630      0.001550
     1.1635      0.001580
     1.1640      0.000470
     1.1645      0.002110
     1.1650      0.003840
     1.1655      0.002850
     1.1660      0.000000
     1.1665      0.001720
     1.1670      0.002590
     1.1675      0.000030
     1.1680      0.003350
     1.1685      0.004080
     1.1690      0.002740
     1.1695      0.003730
     1.1700      0.001880
     1.1705      0.000000
     1.1710      0.000000
     1.1715      0.000000
     1.1720      0.002030
     1.1725      0.000260
     1.1730      0.000000
     1.1735      0.003310
     1.1740      0.001320
     1.1745      0.002680
     1.1750      0.000000
     1.1755      0.002490
     1.1760      0.000000
     1.1765      0.000860
     1.1770      0.001070
     1.1775      0.000010
     1.1780      0.000000
     1.1785      0.000000
     1.1790      0.000640
     1.1795      0.000070
     1.1800      0.000050
     1.1805      0.000570
     1.1810      0.001630
     1.1815      0.000360
     1.1820      0.000190
     1.1825      0.000740
     1.1830      0.000050
     1.1835      0.000760
     1.1840      0.001420
     1.1845      0.000060
     1.1850      0.000000
     1.1855      0.000210
     1.1860      0.000590
     1.1865      0.000040
     1.1870      0.000770
     1.1875      0.001020
     1.1880      0.000040
     1.1885      0.000060
     1.1890      0.001580
     1.1895      0.000440
     1.1900      0.001350
     1.1905      0.000230
     1.1910      0.000000
     1.1915      0.000000
     1.1920      0.000190
     1.1925      0.001740
     1.1930      0.000000
     1.1935      0.001180
     1.1940      0.001530
     1.1945      0.001690
     1.1950      0.000670
     1.1955      0.000130
     1.1960      0.000390
     1.1965      0.000000
     1.1970      0.000050
     1.1975      0.000550
     1.1980      0.001570
     1.1985      0.001610
     1.1990      0.002340
     1.1995      0.001490
     1.2000      0.000140
     1.2005      0.000230
     1.2010      0.000000
     1.2015      0.000220
     1.2020      0.000000
     1.2025      0.000700
     1.2030      0.000470
     1.2035      0.000940
     1.2040      0.000970
     1.2045      0.002400
     1.2050      0.001580
     1.2055      0.000360
     1.2060      0.000350
     1.2065      0.000100
     1.2070      0.001080
     1.2075      0.001120
     1.2080      0.001490
     1.2085      0.000910
     1.2090      0.001820
     1.2095      0.000300
     1.2100      0.000120
     1.2105      0.001280
     1.2110      0.000270
     1.2115      0.000170
     1.2120      0.000000
     1.2125      0.000080
     1.2130      0.000740
     1.2135      0.001430
     1.2140      0.001230
     1.2145      0.000220
     1.2150      0.000820
     1.2155      0.001770
     1.2160      0.002230
     1.2165      0.001520
     1.2170      0.000000
     1.2175      0.001090
     1.2180      0.000010
     1.2185      0.000070
     1.2190      0.001530
     1.2195      0.000430
     1.2200      0.000190
     1.2205      0.000590
     1.2210      0.000220
     1.2215      0.000020
     1.2220      0.001420
     1.2225      0.000100
     1.2230      0.002500
     1.2235      0.000000
     1.2240      0.001380
     1.2245      0.000000
     1.2250      0.000090
     1.2255      0.000140
     1.2260      0.000080
     1.2265      0.000770
     1.2270      0.000120
     1.2275      0.000040
     1.2280      0.000000
     1.2285      0.000000
     1.2290      0.000010
     1.2295      0.000100
     1.2300      0.001020
     1.2305      0.001200
     1.2310      0.000000
     1.2315      0.001290
     1.2320      0.000190
     1.2325      0.000250
     1.2330      0.000000
     1.2335      0.000000
     1.2340      0.001320
     1.2345      0.001100
     1.2350      0.002150
     1.2355      0.001110
     1.2360      0.000330
     1.2365      0.000470
     1.2370      0.001020
     1.2375      0.000030
     1.2380      0.000090
     1.2385      0.002000
     1.2390      0.000000
     1.2395      0.000000
     1.2400      0.000000
     1.2405      0.000980
     1.2410      0.000260
     1.2415      0.000060
     1.2420      0.000160
     1.2425      0.000000
     1.2430      0.001690
     1.2435      0.000710
     1.2440      0.000150
     1.2445      0.001340
     1.2450      0.001030
     1.2455      0.000360
     1.2460      0.000000
     1.2465      0.001200
     1.2470      0.000760
     1.2475      0.000290
     1.2480      0.001190
     1.2485      0.000090
     1.2490      0.000400
     1.2495      0.000190
     1.2500      0.001470
     1.2505      0.001310
     1.2510      0.001700
     1.2515      0.000470
     1.2520      0.000000
     1.2525      0.000110
     1.2530      0.001020
     1.2535      0.001770
     1.2540      0.000010
     1.2545      0.000540
     1.2550      0.000450
     1.2555      0.000740
     1.2560      0.001610
     1.2565      0.000110
     1.2570      0.000000
     1.2575      0.000790
     1.2580      0.000490
     1.2585      0.000000
     1.2590      0.001640
     1.2595      0.000560
     1.2600      0.000310
     1.2605      0.000730
     1.2610      0.000810
     1.2615      0.000980
     1.2620      0.000510
     1.2625      0.000050
     1.2630      0.000000
     1.2635      0.000630
     1.2640      0.000360
     1.2645      0.002100
     1.2650      0.000290
     1.2655      0.001090
     1.2660      0.000340
     1.2665      0.000030
     1.2670      0.001280
     1.2675      0.000530
     1.2680      0.000590
     1.2685      0.001160
     1.2690      0.000710
     1.2695      0.000840
     1.2700      0.000160
     1.2705      0.001230
     1.2710      0.001210
     1.2715      0.000930
     1.2720      0.000000
     1.2725      0.002060
     1.2730      0.002710
     1.2735      0.002300
     1.2740      0.002520
     1.2745      0.003960
     1.2750      0.004580
     1.2755      0.004730
     1.2760      0.003440
     1.2765      0.002600
     1.2770      0.002860
     1.2775      0.000980
     1.2780      0.001020
     1.2785      0.000000
     1.2790      0.000470
     1.2795      0.000950
     1.2800      0.000080
     1.2805      0.001120
     1.2810      0.001250
     1.2815      0.000540
     1.2820      0.000000
     1.2825      0.000410
     1.2830      0.000000
     1.2835      0.000350
     1.2840      0.001750
     1.2845      0.000200
     1.2850      0.000150
     1.2855      0.000700
     1.2860      0.000020
     1.2865      0.000020
     1.2870      0.000120
     1.2875      0.001200
     1.2880      0.000000
     1.2885      0.001600
     1.2890      0.000510
     1.2895      0.001470
     1.2900      0.001140
     1.2905      0.000360
     1.2910      0.000220
     1.2915      0.001180
     1.2920      0.000000
     1.2925      0.000250
     1.2930      0.000330
     1.2935      0.000920
     1.2940      0.000090
     1.2945      0.000630
     1.2950      0.000650
     1.2955      0.000000
     1.2960      0.000850
     1.2965      0.000080
     1.2970      0.000000
     1.2975      0.000030
     1.2980      0.000680
     1.2985      0.000510
     1.2990      0.000020
     1.2995      0.000000
     1.3000      0.000140
     1.3005      0.000000
     1.3010      0.000300
     1.3015      0.000000
     1.3020      0.000010
     1.3025      0.000000
     1.3030      0.000010
     1.3035      0.000000
     1.3040      0.000240
     1.3045      0.000450
     1.3050      0.000380
     1.3055      0.000750
     1.3060      0.001490
     1.3065      0.001230
     1.3070      0.000970
     1.3075      0.000710
     1.3080      0.000300
     1.3085      0.000300
     1.3090      0.000000
     1.3095      0.001180
     1.3100      0.000020
     1.3105      0.000630
     1.3110      0.000990
     1.3115      0.000200
     1.3120      0.000000
     1.3125      0.000000
     1.3130      0.000000
     1.3135      0.000000
     1.3140      0.000030
     1.3145      0.000700
     1.3150      0.000640
     1.3155      0.000250
     1.3160      0.000550
     1.3165      0.000660
     1.3170      0.000300
     1.3175      0.001560
     1.3180      0.003680
     1.3185      0.003020
     1.3190      0.005420
     1.3195      0.007640
     1.3200      0.008580
     1.3205      0.007020
     1.3210      0.004790
     1.3215      0.002300
     1.3220      0.001540
     1.3225      0.001540
     1.3230      0.000850
     1.3235      0.000000
     1.3240      0.000260
     1.3245      0.000630
     1.3250      0.000490
     1.3255      0.000450
     1.3260      0.001410
     1.3265      0.000410
     1.3270      0.000210
     1.3275      0.001080
     1.3280      0.000010
     1.3285      0.000000
     1.3290      0.000180
     1.3295      0.001040
     1.3300      0.000170
     1.3305      0.000120
     1.3310      0.000300
     1.3315      0.000000
     1.3320      0.000760
     1.3325      0.000070
     1.3330      0.000840
     1.3335      0.001030
     1.3340      0.001470
     1.3345      0.000150
     1.3350      0.000330
     1.3355      0.000760
     1.3360      0.000000
     1.3365      0.001560
     1.3370      0.000540
     1.3375      0.000690
     1.3380      0.001090
     1.3385      0.000390
     1.3390      0.000000
     1.3395      0.000000
     1.3400      0.000000
     1.3405      0.000000
     1.3410      0.000000
     1.3415      0.000520
     1.3420      0.000330
     1.3425      0.000000
     1.3430      0.000000
     1.3435      0.000010
     1.3440      0.000360
     1.3445      0.000310
     1.3450      0.000740
     1.3455      0.000140
     1.3460      0.000390
     1.3465      0.000350
     1.3470      0.000000
     1.3475      0.000000
     1.3480      0.000110
     1.3485      0.000980
     1.3490      0.000630
     1.3495      0.000520
     1.3500      0.002020
     1.3505      0.000980
     1.3510      0.000210
     1.3515      0.000930
     1.3520      0.000230
     1.3525      0.000000
     1.3530      0.000270
     1.3535      0.000850
     1.3540      0.000100
     1.3545      0.000150
     1.3550      0.001190
     1.3555      0.000510
     1.3560      0.000270
     1.3565      0.000550
     1.3570      0.000000
     1.3575      0.000000
     1.3580      0.000000
     1.3585      0.000950
     1.3590      0.000180
     1.3595      0.000000
     1.3600      0.000620
     1.3605      0.000000
     1.3610      0.001180
     1.3615      0.000000
     1.3620      0.000640
     1.3625      0.000000
     1.3630      0.000340
     1.3635      0.000890
     1.3640      0.000680
     1.3645      0.000870
     1.3650      0.000520
     1.3655      0.000920
     1.3660      0.000050
     1.3665      0.000040
     1.3670      0.001700
     1.3675      0.000000
     1.3680      0.000110
     1.3685      0.000810
     1.3690      0.000280
     1.3695      0.000060
     1.3700      0.000090
     1.3705      0.000770
     1.3710      0.001780
     1.3715      0.000090
     1.3720      0.000130
     1.3725      0.000980
     1.3730      0.000220
     1.3735      0.000000
     1.3740      0.000640
     1.3745      0.000050
     1.3750      0.000040
     1.3755      0.001190
     1.3760      0.000320
     1.3765      0.000240
     1.3770      0.000100
     1.3775      0.000000
     1.3780      0.000000
     1.3785      0.000000
     1.3790      0.000130
     1.3795      0.000000
     1.3800      0.000430
     1.3805      0.000400
     1.3810      0.000200
     1.3815      0.000070
     1.3820      0.000320
     1.3825      0.000050
     1.3830      0.000000
     1.3835      0.000080
     1.3840      0.000700
     1.3845      0.000280
     1.3850      0.000530
     1.3855      0.000000
     1.3860      0.000070
     1.3865      0.000270
     1.3870      0.000000
     1.3875      0.000000
     1.3880      0.000070
     1.3885      0.000000
     1.3890      0.000000
     1.3895      0.000480
     1.3900      0.000090
     1.3905      0.000540
     1.3910      0.000000
     1.3915      0.000000
     1.3920      0.000250
     1.3925      0.000170
     1.3930      0.000000
     1.3935      0.000120
     1.3940      0.000000
     1.3945      0.000000
     1.3950      0.001920
     1.3955      0.001020
     1.3960      0.000000
     1.3965      0.000000
     1.3970      0.000090
     1.3975      0.000180
     1.3980      0.000000
     1.3985      0.000970
     1.3990      0.000300
     1.3995      0.000440
     1.4000      0.000070
     1.4005      0.000000
     1.4010      0.000540
     1.4015      0.000470
     1.4020      0.000670
     1.4025      0.000060
     1.4030      0.000600
     1.4035      0.000000
     1.4040      0.000130
     1.4045      0.000320
     1.4050      0.000090
     1.4055      0.000110
     1.4060      0.000000
     1.4065      0.000000
     1.4070      0.000000
     1.4075      0.000000
     1.4080      0.000770
     1.4085      0.000030
     1.4090      0.000300
     1.4095      0.000400
     1.4100      0.000320
     1.4105      0.000830
     1.4110      0.000000
     1.4115      0.000120
     1.4120      0.000170
     1.4125      0.000000
     1.4130      0.000000
     1.4135      0.000620
     1.4140      0.001320
     1.4145      0.000390
     1.4150      0.000320
     1.4155      0.000010
     1.4160      0.000240
     1.4165      0.000000
     1.4170      0.000670
     1.4175      0.001320
     1.4180      0.000830
     1.4185      0.000610
     1.4190      0.000000
     1.4195      0.000630
     1.4200      0.000000
     1.4205      0.000010
     1.4210      0.000000
     1.4215      0.000750
     1.4220      0.000090
     1.4225      0.000000
     1.4230      0.000180
     1.4235      0.000220
     1.4240      0.000000
     1.4245      0.000000
     1.4250      0.000110
     1.4255      0.000000
     1.4260      0.000550
     1.4265      0.000600
     1.4270      0.000080
     1.4275      0.000650
     1.4280      0.000000
     1.4285      0.000240
     1.4290      0.000000
     1.4295      0.000000
     1.4300      0.000090
     1.4305      0.000840
     1.4310      0.000000
     1.4315      0.000990
     1.4320      0.000270
     1.4325      0.000000
     1.4330      0.000000
     1.4335      0.000070
     1.4340      0.000860
     1.4345      0.000000
     1.4350      0.000260
     1.4355      0.000000
     1.4360      0.000070
     1.4365      0.000000
     1.4370      0.001070
     1.4375      0.000000
     1.4380      0.000000
     1.4385      0.000080
     1.4390      0.000080
     1.4395      0.000250
     1.4400      0.001560
     1.4405      0.000000
     1.4410      0.000000
     1.4415      0.000500
     1.4420      0.000440
     1.4425      0.001360
     1.4430      0.000570
     1.4435      0.000190
     1.4440      0.000390
     1.4445      0.000100
     1.4450      0.001240
     1.4455      0.000000
     1.4460      0.000560
     1.4465      0.000810
     1.4470      0.000970
     1.4475      0.000520
     1.4480      0.001390
     1.4485      0.001400
     1.4490      0.001990
     1.4495      0.002790
     1.4500      0.002990
     1.4505      0.001090
     1.4510      0.000810
     1.4515      0.000730
     1.4520      0.000000
     1.4525      0.002150
     1.4530      0.000750
     1.4535      0.000000
     1.4540      0.000000
     1.4545      0.000000
     1.4550      0.000000
     1.4555      0.000000
     1.4560      0.000100
     1.4565      0.000000
     1.4570      0.000590
     1.4575      0.000110
     1.4580      0.000050
     1.4585      0.000110
     1.4590      0.000020
     1.4595      0.000140
     1.4600      0.000770
     1.4605      0.000320
     1.4610      0.000830
     1.4615      0.000400
     1.4620      0.000070
     1.4625      0.000000
     1.4630      0.000000
     1.4635      0.000010
     1.4640      0.000080
     1.4645      0.000000
     1.4650      0.000480
     1.4655      0.000240
     1.4660      0.000000
     1.4665      0.000440
     1.4670      0.000680
     1.4675      0.000000
     1.4680      0.000760
     1.4685      0.000000
     1.4690      0.001060
     1.4695      0.000290
     1.4700      0.000000
     1.4705      0.000140
     1.4710      0.000470
     1.4715      0.000420
     1.4720      0.000000
     1.4725      0.000050
     1.4730      0.000430
     1.4735      0.000120
     1.4740      0.000010
     1.4745      0.000290
     1.4750      0.000070
     1.4755      0.001080
     1.4760      0.000010
     1.4765      0.000400
     1.4770      0.000000
     1.4775      0.000000
     1.4780      0.000000
     1.4785      0.000120
     1.4790      0.000000
     1.4795      0.000000
     1.4800      0.000500
     1.4805      0.000480
     1.4810      0.000000
     1.4815      0.000000
     1.4820      0.000720
     1.4825      0.001430
     1.4830      0.000250
     1.4835      0.000000
     1.4840      0.000000
     1.4845      0.000590
     1.4850      0.000120
     1.4855      0.000560
     1.4860      0.000070
     1.4865      0.000360
     1.4870      0.000550
     1.4875      0.000000
     1.4880      0.000110
     1.4885      0.000380
     1.4890      0.000000
     1.4895      0.000000
     1.4900      0.000000
     1.4905      0.000000
     1.4910      0.000010
     1.4915      0.000430
     1.4920      0.000010
     1.4925      0.000030
     1.4930      0.000580
     1.4935      0.000000
     1.4940      0.000000
     1.4945      0.000000
     1.4950      0.000000
     1.4955      0.000000
     1.4960      0.000010
     1.4965      0.000010
     1.4970      0.000260
     1.4975      0.000550
     1.4980      0.000350
     1.4985      0.000000
     1.4990      0.000000
     1.4995      0.000000
     1.5000      0.000110
     1.5005      0.000250
     1.5010      0.000420
     1.5015      0.000030
     1.5020      0.000190
     1.5025      0.000130
     1.5030      0.000000
     1.5035      0.000400
     1.5040      0.000880
     1.5045      0.000240
     1.5050      0.000320
     1.5055      0.000090
     1.5060      0.000260
     1.5065      0.000000
     1.5070      0.000000
     1.5075      0.000000
     1.5080      0.000000
     1.5085      0.000000
     1.5090      0.000510
     1.5095      0.000000
     1.5100      0.000000
     1.5105      0.000060
     1.5110      0.000000
     1.5115      0.000010
     1.5120      0.000000
     1.5125      0.000320
     1.5130      0.000000
     1.5135      0.000000
     1.5140      0.001250
     1.5145      0.000530
     1.5150      0.000450
     1.5155      0.000040
     1.5160      0.000300
     1.5165      0.000050
     1.5170      0.000430
     1.5175      0.000110
     1.5180      0.000150
     1.5185      0.000190
     1.5190      0.000210
     1.5195      0.000430
     1.5200      0.000380
     1.5205      0.000730
     1.5210      0.000010
     1.5215      0.000390
     1.5220      0.000940
     1.5225      0.000000
     1.5230      0.000000
     1.5235      0.000660
     1.5240      0.000130
     1.5245      0.000720
     1.5250      0.000650
     1.5255      0.000890
     1.5260      0.000050
     1.5265      0.000000
     1.5270      0.000300
     1.5275      0.000090
     1.5280      0.000550
     1.5285      0.000680
     1.5290      0.000270
     1.5295      0.000160
     1.5300      0.000160
     1.5305      0.000600
     1.5310      0.000000
     1.5315      0.000240
     1.5320      0.000060
     1.5325      0.001090
     1.5330      0.000000
     1.5335      0.000000
     1.5340      0.000000
     1.5345      0.000000
     1.5350      0.000100
     1.5355      0.000120
     1.5360      0.000100
     1.5365      0.000300
     1.5370      0.000010
     1.5375      0.000110
     1.5380      0.000350
     1.5385      0.000000
     1.5390      0.000050
     1.5395      0.000000
     1.5400      0.000310
     1.5405      0.000540
     1.5410      0.000520
     1.5415      0.000470
     1.5420      0.000000
     1.5425      0.000000
     1.5430      0.000000
     1.5435      0.000010
     1.5440      0.000620
     1.5445      0.000040
     1.5450      0.000000
     1.5455      0.000190
     1.5460      0.000760
     1.5465      0.000140
     1.5470      0.000000
     1.5475      0.000650
     1.5480      0.000530
     1.5485      0.000180
     1.5490      0.000090
     1.5495      0.001050
     1.5500      0.000000
     1.5505      0.000020
     1.5510      0.000370
     1.5515      0.000870
     1.5520      0.001520
     1.5525      0.001200
     1.5530      0.000390
     1.5535      0.000960
     1.5540      0.000720
     1.5545      0.000800
     1.5550      0.000030
     1.5555      0.000860
     1.5560      0.000000
     1.5565      0.000140
     1.5570      0.000370
     1.5575      0.000550
     1.5580      0.001570
     1.5585      0.000500
     1.5590      0.000810
     1.5595      0.000350
     1.5600      0.000850
     1.5605      0.000500
     1.5610      0.000660
     1.5615      0.000720
     1.5620      0.000660
     1.5625      0.000290
     1.5630      0.000810
     1.5635      0.000620
     1.5640      0.000110
     1.5645      0.000790
     1.5650      0.000790
     1.5655      0.000130
     1.5660      0.000360
     1.5665      0.000010
     1.5670      0.000210
     1.5675      0.000730
     1.5680      0.000410
     1.5685      0.000630
     1.5690      0.001540
     1.5695      0.000990
     1.5700      0.000120
     1.5705      0.000020
     1.5710      0.000530
     1.5715      0.001020
     1.5720      0.000940
     1.5725      0.001060
     1.5730      0.000930
     1.5735      0.000740
     1.5740      0.000530
     1.5745      0.000390
     1.5750      0.000770
     1.5755      0.000390
     1.5760      0.000600
     1.5765      0.000530
     1.5770      0.000480
     1.5775      0.000260
     1.5780      0.000420
     1.5785      0.000010
     1.5790      0.000630
     1.5795      0.000150
     1.5800      0.000730
     1.5805      0.001130
     1.5810      0.000000
     1.5815      0.000270
     1.5820      0.000710
     1.5825      0.000470
     1.5830      0.000920
     1.5835      0.000580
     1.5840      0.000630
     1.5845      0.000650
     1.5850      0.000000
     1.5855      0.001270
     1.5860      0.000000
     1.5865      0.000180
     1.5870      0.000620
     1.5875      0.000130
     1.5880      0.000040
     1.5885      0.000090
     1.5890      0.000000
     1.5895      0.000000
     1.5900      0.000000
     1.5905      0.000450
     1.5910      0.000340
     1.5915      0.000400
     1.5920      0.000360
     1.5925      0.000000
     1.5930      0.000450
     1.5935      0.000030
     1.5940      0.000180
     1.5945      0.000310
     1.5950      0.000000
     1.5955      0.000140
     1.5960      0.000190
     1.5965      0.000200
     1.5970      0.000110
     1.5975      0.000060
     1.5980      0.000850
     1.5985      0.001040
     1.5990      0.000380
     1.5995      0.000740
     1.6000      0.000990
     1.6005      0.000330
     1.6010      0.000930
     1.6015      0.000400
     1.6020      0.000570
     1.6025      0.000640
     1.6030      0.000660
     1.6035      0.000670
     1.6040      0.000740
     1.6045      0.000750
     1.6050      0.001050
     1.6055      0.000990
     1.6060      0.000800
     1.6065      0.000390
     1.6070      0.000890
     1.6075      0.001080
     1.6080      0.001180
     1.6085      0.001660
     1.6090      0.001810
     1.6095      0.001730
     1.6100      0.002250
     1.6105      0.002150
     1.6110      0.002090
     1.6115      0.002170
     1.6120      0.002530
     1.6125      0.002930
     1.6130      0.002280
     1.6135      0.002210
     1.6140      0.002540
     1.6145      0.001270
     1.6150      0.001630
     1.6155      0.001440
     1.6160      0.001440
     1.6165      0.001410
     1.6170      0.000830
     1.6175      0.000680
     1.6180      0.000520
     1.6185      0.000000
     1.6190      0.000000
     1.6195      0.000140
     1.6200      0.000000
     1.6205      0.000320
     1.6210      0.000000
     1.6215      0.000870
     1.6220      0.000390
     1.6225      0.000290
     1.6230      0.000620
     1.6235      0.001170
     1.6240      0.001050
     1.6245      0.000620
     1.6250      0.000450
     1.6255      0.000730
     1.6260      0.000010
     1.6265      0.000320
     1.6270      0.000140
     1.6275      0.000010
     1.6280      0.000150
     1.6285      0.000630
     1.6290      0.000170
     1.6295      0.000540
     1.6300      0.000520
     1.6305      0.000050
     1.6310      0.000500
     1.6315      0.000480
     1.6320      0.001050
     1.6325      0.000370
     1.6330      0.000180
     1.6335      0.000690
     1.6340      0.000000
     1.6345      0.000000
     1.6350      0.000000
     1.6355      0.000000
     1.6360      0.000000
     1.6365      0.000000
     1.6370      0.000000
     1.6375      0.000010
     1.6380      0.000710
     1.6385      0.000800
     1.6390      0.000270
     1.6395      0.000000
     1.6400      0.000320
     1.6405      0.000910
     1.6410      0.000000
     1.6415      0.000000
     1.6420      0.000000
     1.6425      0.000010
     1.6430      0.000820
     1.6435      0.000390
     1.6440      0.000240
     1.6445      0.000000
     1.6450      0.000000
     1.6455      0.000430
     1.6460      0.000030
     1.6465      0.000000
     1.6470      0.000000
     1.6475      0.000000
     1.6480      0.000020
     1.6485      0.000790
     1.6490      0.000040
     1.6495      0.000000
     1.6500      0.000080
     1.6505      0.000360
     1.6510      0.000090
     1.6515      0.000150
     1.6520      0.000660
     1.6525      0.000890
     1.6530      0.000570
     1.6535      0.000110
     1.6540      0.000720
     1.6545      0.000790
     1.6550      0.001280
     1.6555      0.000720
     1.6560      0.000890
     1.6565      0.001610
     1.6570      0.001720
     1.6575      0.001630
     1.6580      0.001340
     1.6585      0.002530
     1.6590      0.002950
     1.6595      0.002970
     1.6600      0.003800
     1.6605      0.004110
     1.6610      0.005630
     1.6615      0.005640
     1.6620      0.007850
     1.6625      0.010580
     1.6630      0.012400
     1.6635      0.016280
     1.6640      0.019510
     1.6645      0.020070
     1.6650      0.018780
     1.6655      0.015140
     1.6660      0.011120
     1.6665      0.008250
     1.6670      0.006340
     1.6675      0.004810
     1.6680      0.003130
     1.6685      0.002070
     1.6690      0.001910
     1.6695      0.002070
     1.6700      0.000350
     1.6705      0.000610
     1.6710      0.001320
     1.6715      0.000700
     1.6720      0.000650
     1.6725      0.000280
     1.6730      0.000500
     1.6735      0.000760
     1.6740      0.000920
     1.6745      0.000530
     1.6750      0.000520
     1.6755      0.000320
     1.6760      0.000000
     1.6765      0.000070
     1.6770      0.000420
     1.6775      0.000040
     1.6780      0.000010
     1.6785      0.000550
     1.6790      0.000350
     1.6795      0.000020
     1.6800      0.000020
     1.6805      0.000050
     1.6810      0.000310
     1.6815      0.000000
     1.6820      0.000400
     1.6825      0.000070
     1.6830      0.000030
     1.6835      0.000000
     1.6840      0.000000
     1.6845      0.000000
     1.6850      0.000150
     1.6855      0.000710
     1.6860      0.000970
     1.6865      0.000660
     1.6870      0.000140
     1.6875      0.000100
     1.6880      0.000350
     1.6885      0.000110
     1.6890      0.000630
     1.6895      0.000890
     1.6900      0.000430
     1.6905      0.000420
     1.6910      0.000030
     1.6915      0.000650
     1.6920      0.000660
     1.6925      0.001150
     1.6930      0.001210
     1.6935      0.000370
     1.6940      0.000780
     1.6945      0.000740
     1.6950      0.000280
     1.6955      0.000070
     1.6960      0.000670
     1.6965      0.000000
     1.6970      0.000000
     1.6975      0.000000
     1.6980      0.000000
     1.6985      0.000090
     1.6990      0.000000
     1.6995      0.000570
     1.7000      0.000160
     1.7005      0.000000
     1.7010      0.000000
     1.7015      0.000050
     1.7020      0.000030
     1.7025      0.000000
     1.7030      0.000000
     1.7035      0.000000
     1.7040      0.000000
     1.7045      0.000000
     1.7050      0.000000
     1.7055      0.000000
     1.7060      0.000000
     1.7065      0.000000
     1.7070      0.000140
     1.7075      0.000050
     1.7080      0.000220
     1.7085      0.000000
     1.7090      0.000000
     1.7095      0.000080
     1.7100      0.000480
     1.7105      0.000000
     1.7110      0.000000
     1.7115      0.000180
     1.7120      0.000000
     1.7125      0.000000
     1.7130      0.000000
     1.7135      0.000000
     1.7140      0.000000
     1.7145      0.000030
     1.7150      0.000020
     1.7155      0.000000
     1.7160      0.000030
     1.7165      0.000000
     1.7170      0.000000
     1.7175      0.000000
     1.7180      0.000050
     1.7185      0.000070
     1.7190      0.000000
     1.7195      0.000000
     1.7200      0.000000
     1.7205      0.000000
     1.7210      0.000000
     1.7215      0.000000
     1.7220      0.000270
     1.7225      0.000110
     1.7230      0.000110
     1.7235      0.000060
     1.7240      0.000000
     1.7245      0.000000
     1.7250      0.000000
     1.7255      0.000050
     1.7260      0.000000
     1.7265      0.000000
     1.7270      0.000000
     1.7275      0.000000
     1.7280      0.000010
     1.7285      0.000480
     1.7290      0.000570
     1.7295      0.000230
     1.7300      0.000000
     1.7305      0.000000
     1.7310      0.000000
     1.7315      0.000000
     1.7320      0.000000
     1.7325      0.000000
     1.7330      0.000090
     1.7335      0.000510
     1.7340      0.000000
     1.7345      0.000110
     1.7350      0.000190
     1.7355      0.000530
     1.7360      0.000920
     1.7365      0.000460
     1.7370      0.000670
     1.7375      0.000430
     1.7380      0.000000
     1.7385      0.000440
     1.7390      0.000000
     1.7395      0.000000
     1.7400      0.000000
     1.7405      0.000000
     1.7410      0.000000
     1.7415      0.000220
     1.7420      0.000100
     1.7425      0.000000
     1.7430      0.000130
     1.7435      0.000200
     1.7440      0.000040
     1.7445      0.000000
     1.7450      0.000390
     1.7455      0.000730
     1.7460      0.000620
     1.7465      0.000180
     1.7470      0.000200
     1.7475      0.000570
     1.7480      0.000410
     1.7485      0.000350
     1.7490      0.000610
     1.7495      0.000990
     1.7500      0.000780
     1.7505      0.000960
     1.7510      0.000980
     1.7515      0.000900
     1.7520      0.000770
     1.7525      0.000880
     1.7530      0.000780
     1.7535      0.001020
     1.7540      0.000720
     1.7545      0.000760
     1.7550      0.001230
     1.7555      0.001100
     1.7560      0.000520
     1.7565      0.000340
     1.7570      0.001220
     1.7575      0.001250
     1.7580      0.001180
     1.7585      0.000900
     1.7590      0.000830
     1.7595      0.000450
     1.7600      0.000790
     1.7605      0.000400
     1.7610      0.000730
     1.7615      0.000870
     1.7620      0.000600
     1.7625      0.000310
     1.7630      0.000010
     1.7635      0.000310
     1.7640      0.000540
     1.7645      0.000180
     1.7650      0.000230
     1.7655      0.000090
     1.7660      0.000100
     1.7665      0.000000
     1.7670      0.000110
     1.7675      0.000530
     1.7680      0.000670
     1.7685      0.000650
     1.7690      0.000510
     1.7695      0.000290
     1.7700      0.000640
     1.7705      0.000390
     1.7710      0.000000
     1.7715      0.000000
     1.7720      0.000020
     1.7725      0.000190
     1.7730      0.000110
     1.7735      0.000000
     1.7740      0.000370
     1.7745      0.000280
     1.7750      0.000340
     1.7755      0.000000
     1.7760      0.000070
     1.7765      0.000000
     1.7770      0.000000
     1.7775      0.000220
     1.7780      0.000030
     1.7785      0.000000
     1.7790      0.000050
     1.7795      0.000260
     1.7800      0.000200
     1.7805      0.000050
     1.7810      0.000390
     1.7815      0.000310
     1.7820      0.000000
     1.7825      0.000130
     1.7830      0.000360
     1.7835      0.000020
     1.7840      0.000120
     1.7845      0.000040
     1.7850      0.000030
     1.7855      0.000200
     1.7860      0.000190
     1.7865      0.000000
     1.7870      0.000240
     1.7875      0.000860
     1.7880      0.000600
     1.7885      0.000780
     1.7890      0.000460
     1.7895      0.000380
     1.7900      0.000230
     1.7905      0.000070
     1.7910      0.000180
     1.7915      0.000000
     1.7920      0.000370
     1.7925      0.000650
     1.7930      0.000020
     1.7935      0.000390
     1.7940      0.000020
     1.7945      0.000530
     1.7950      0.000420
     1.7955      0.000640
     1.7960      0.000860
     1.7965      0.000410
     1.7970      0.000090
     1.7975      0.000490
     1.7980      0.000950
     1.7985      0.000700
     1.7990      0.000690
     1.7995      0.000410
     1.8000      0.000490
     1.8005      0.000740
     1.8010      0.000160
     1.8015      0.000400
     1.8020      0.000260
     1.8025      0.000010
     1.8030      0.000130
     1.8035      0.000000
     1.8040      0.000000
     1.8045      0.000000
     1.8050      0.000000
     1.8055      0.000000
     1.8060      0.000000
     1.8065      0.000020
     1.8070      0.000220
     1.8075      0.000000
     1.8080      0.000000
     1.8085      0.000010
     1.8090      0.000150
     1.8095      0.000000
     1.8100      0.000000
     1.8105      0.000000
     1.8110      0.000000
     1.8115      0.000160
     1.8120      0.000000
     1.8125      0.000010
     1.8130      0.000130
     1.8135      0.000720
     1.8140      0.000630
     1.8145      0.000380
     1.8150      0.000190
     1.8155      0.000130
     1.8160      0.000030
     1.8165      0.000020
     1.8170      0.000450
     1.8175      0.000620
     1.8180      0.000340
     1.8185      0.000380
     1.8190      0.000120
     1.8195      0.000400
     1.8200      0.000240
     1.8205      0.000070
     1.8210      0.000320
     1.8215      0.000230
     1.8220      0.000000
     1.8225      0.000370
     1.8230      0.000370
     1.8235      0.000360
     1.8240      0.000280
     1.8245      0.000030
     1.8250      0.000170
     1.8255      0.000250
     1.8260      0.000160
     1.8265      0.000230
     1.8270      0.000000
     1.8275      0.000200
     1.8280      0.000830
     1.8285      0.000760
     1.8290      0.000570
     1.8295      0.000210
     1.8300      0.000340
     1.8305      0.000170
     1.8310      0.000180
     1.8315      0.000150
     1.8320      0.000860
     1.8325      0.000130
     1.8330      0.000010
     1.8335      0.000000
     1.8340      0.000020
     1.8345      0.000000
     1.8350      0.000000
     1.8355      0.000000
     1.8360      0.000050
     1.8365      0.000130
     1.8370      0.000370
     1.8375      0.000140
     1.8380      0.000140
     1.8385      0.000670
     1.8390      0.000120
     1.8395      0.000170
     1.8400      0.000330
     1.8405      0.000000
     1.8410      0.000000
     1.8415      0.000790
     1.8420      0.000330
     1.8425      0.000020
     1.8430      0.000010
     1.8435      0.000040
     1.8440      0.000200
     1.8445      0.000070
     1.8450      0.000000
     1.8455      0.000040
     1.8460      0.000520
     1.8465      0.000850
     1.8470      0.000010
     1.8475      0.000000
     1.8480      0.000250
     1.8485      0.000300
     1.8490      0.000160
     1.8495      0.000160
     1.8500      0.000050
     1.8505      0.000000
     1.8510      0.000000
     1.8515      0.000000
     1.8520      0.000010
     1.8525      0.000010
     1.8530      0.000050
     1.8535      0.000100
     1.8540      0.000000
     1.8545      0.000000
     1.8550      0.000020
     1.8555      0.000040
     1.8560      0.000060
     1.8565      0.000130
     1.8570      0.000000
     1.8575      0.000000
     1.8580      0.000090
     1.8585      0.000400
     1.8590      0.000050
     1.8595      0.000010
     1.8600      0.000000
     1.8605      0.000030
     1.8610      0.000280
     1.8615      0.000100
     1.8620      0.000000
     1.8625      0.000000
     1.8630      0.000090
     1.8635      0.000270
     1.8640      0.000000
     1.8645      0.000000
     1.8650      0.000600
     1.8655      0.000240
     1.8660      0.000000
     1.8665      0.000030
     1.8670      0.000170
     1.8675      0.000100
     1.8680      0.000000
     1.8685      0.000000
     1.8690      0.000530
     1.8695      0.000240
     1.8700      0.000010
     1.8705      0.000270
     1.8710      0.000320
     1.8715      0.000430
     1.8720      0.000680
     1.8725      0.000940
     1.8730      0.001150
     1.8735      0.000270
     1.8740      0.000210
     1.8745      0.000000
     1.8750      0.000000
     1.8755      0.000000
     1.8760      0.000000
     1.8765      0.000090
     1.8770      0.000530
     1.8775      0.000120
     1.8780      0.000270
     1.8785      0.000150
     1.8790      0.000000
     1.8795      0.000000
     1.8800      0.000000
     1.8805      0.000000
     1.8810      0.000040
     1.8815      0.000280
     1.8820      0.000000
     1.8825      0.000020
     1.8830      0.000420
     1.8835      0.000290
     1.8840      0.000060
     1.8845      0.000020
     1.8850      0.000000
     1.8855      0.000000
     1.8860      0.000000
     1.8865      0.000000
     1.8870      0.000000
     1.8875      0.000210
     1.8880      0.000620
     1.8885      0.000190
     1.8890      0.000000
     1.8895      0.000000
     1.8900      0.000000
     1.8905      0.000020
     1.8910      0.000040
     1.8915      0.000070
     1.8920      0.000610
     1.8925      0.000220
     1.8930      0.000000
     1.8935      0.000000
     1.8940      0.000000
     1.8945      0.000000
     1.8950      0.000000
     1.8955      0.000000
     1.8960      0.000000
     1.8965      0.000010
     1.8970      0.000000
     1.8975      0.000230
     1.8980      0.000470
     1.8985      0.000000
     1.8990      0.000000
     1.8995      0.000000
     1.9000      0.000250
     1.9005      0.000170
     1.9010      0.000090
     1.9015      0.000020
     1.9020      0.000100
     1.9025      0.000470
     1.9030      0.000330
     1.9035      0.000000
     1.9040      0.000000
     1.9045      0.000010
     1.9050      0.000000
     1.9055      0.000000
     1.9060      0.000000
     1.9065      0.000050
     1.9070      0.000100
     1.9075      0.000000
     1.9080      0.000000
     1.9085      0.000000
     1.9090      0.000000
     1.9095      0.000000
     1.9100      0.000040
     1.9105      0.000120
     1.9110      0.000260
     1.9115      0.000310
     1.9120      0.000000
     1.9125      0.000000
     1.9130      0.000000
     1.9135      0.000090
     1.9140      0.000070
     1.9145      0.000000
     1.9150      0.000000
     1.9155      0.000000
     1.9160      0.000020
     1.9165      0.000240
     1.9170      0.000230
     1.9175      0.000010
     1.9180      0.000080
     1.9185      0.000020
     1.9190      0.000370
     1.9195      0.000180
     1.9200      0.000060
     1.9205      0.000000
     1.9210      0.000000
     1.9215      0.000000
     1.9220      0.000030
     1.9225      0.000020
     1.9230      0.000000
     1.9235      0.000070
     1.9240      0.000240
     1.9245      0.000120
     1.9250      0.000250
     1.9255      0.000270
     1.9260      0.000320
     1.9265      0.000510
     1.9270      0.000300
     1.9275      0.000210
     1.9280      0.000160
     1.9285      0.000260
     1.9290      0.000170
     1.9295      0.000000
     1.9300      0.000030
     1.9305      0.000000
     1.9310      0.000080
     1.9315      0.000000
     1.9320      0.000000
     1.9325      0.000000
     1.9330      0.000000
     1.9335      0.000020
     1.9340      0.000140
     1.9345      0.000010
     1.9350      0.000000
     1.9355      0.000000
     1.9360      0.000000
     1.9365      0.000020
     1.9370      0.000120
     1.9375      0.000110
     1.9380      0.000030
     1.9385      0.000000
     1.9390      0.000010
     1.9395      0.000430
     1.9400      0.000300
     1.9405      0.000000
     1.9410      0.000220
     1.9415      0.000150
     1.9420      0.000040
     1.9425      0.000260
     1.9430      0.000380
     1.9435      0.000120
     1.9440      0.000130
     1.9445      0.000410
     1.9450      0.000050
     1.9455      0.000000
     1.9460      0.000050
     1.9465      0.000380
     1.9470      0.000560
     1.9475      0.000410
     1.9480      0.000000
     1.9485      0.000000
     1.9490      0.000000
     1.9495      0.000000
     1.9500      0.000050
     1.9505      0.000010
     1.9510      0.000040
     1.9515      0.000210
     1.9520      0.000060
     1.9525      0.000090
     1.9530      0.000040
     1.9535      0.000000
     1.9540      0.000070
     1.9545      0.000040
     1.9550      0.000020
     1.9555      0.000180
     1.9560      0.000110
     1.9565      0.000010
     1.9570      0.000230
     1.9575      0.000380
     1.9580      0.000140
     1.9585      0.000440
     1.9590      0.000310
     1.9595      0.000010
     1.9600      0.000210
     1.9605      0.000410
     1.9610      0.000040
     1.9615      0.000050
     1.9620      0.000310
     1.9625      0.000310
     1.9630      0.000040
     1.9635      0.000070
     1.9640      0.000180
     1.9645      0.000060
     1.9650      0.000260
     1.9655      0.000320
     1.9660      0.000090
     1.9665      0.000350
     1.9670      0.000110
     1.9675      0.000210
     1.9680      0.000500
     1.9685      0.000540
     1.9690      0.000900
     1.9695      0.000630
     1.9700      0.000530
     1.9705      0.000560
     1.9710      0.000740
     1.9715      0.000510
     1.9720      0.000730
     1.9725      0.000300
     1.9730      0.000110
     1.9735      0.000130
     1.9740      0.000000
     1.9745      0.000000
     1.9750      0.000000
     1.9755      0.000000
     1.9760      0.000160
     1.9765      0.000570
     1.9770      0.000490
     1.9775      0.000480
     1.9780      0.000340
     1.9785      0.000330
     1.9790      0.000430
     1.9795      0.000570
     1.9800      0.000440
     1.9805      0.000090
     1.9810      0.000160
     1.9815      0.000650
     1.9820      0.000650
     1.9825      0.000510
     1.9830      0.000380
     1.9835      0.000150
     1.9840      0.000020
     1.9845      0.000000
     1.9850      0.000080
     1.9855      0.000000
     1.9860      0.000090
     1.9865      0.000250
     1.9870      0.000090
     1.9875      0.000000
     1.9880      0.000150
     1.9885      0.000050
     1.9890      0.000000
     1.9895      0.000000
     1.9900      0.000020
     1.9905      0.000040
     1.9910      0.000340
     1.9915      0.000360
     1.9920      0.000010
     1.9925      0.000000
     1.9930      0.000030
     1.9935      0.000140
     1.9940      0.000160
     1.9945      0.000370
     1.9950      0.000000
     1.9955      0.000000
     1.9960      0.000000
     1.9965      0.000060
     1.9970      0.000240
     1.9975      0.000010
     1.9980      0.000040
     1.9985      0.000200
     1.9990      0.000200
     1.9995      0.000060
     2.0000      0.000440
     2.0005      0.000130
     2.0010      0.000230
     2.0015      0.000870
     2.0020      0.000500
     2.0025      0.000310
     2.0030      0.000070
     2.0035      0.000260
     2.0040      0.000560
     2.0045      0.000490
     2.0050      0.000590
     2.0055      0.000670
     2.0060      0.000130
     2.0065      0.000110
     2.0070      0.000380
     2.0075      0.000460
     2.0080      0.000130
     2.0085      0.000000
     2.0090      0.000010
     2.0095      0.000340
     2.0100      0.000560
     2.0105      0.000430
     2.0110      0.000480
     2.0115      0.000550
     2.0120      0.000310
     2.0125      0.000690
     2.0130      0.000830
     2.0135      0.000410
     2.0140      0.000510
     2.0145      0.000890
     2.0150      0.001000
     2.0155      0.000830
     2.0160      0.000560
     2.0165      0.000370
     2.0170      0.000210
     2.0175      0.000320
     2.0180      0.000590
     2.0185      0.000460
     2.0190      0.000480
     2.0195      0.000410
     2.0200      0.000430
     2.0205      0.000350
     2.0210      0.000410
     2.0215      0.000610
     2.0220      0.000650
     2.0225      0.000930
     2.0230      0.000770
     2.0235      0.000310
     2.0240      0.000220
     2.0245      0.000020
     2.0250      0.000150
     2.0255      0.000600
     2.0260      0.000690
     2.0265      0.000630
     2.0270      0.000360
     2.0275      0.000390
     2.0280      0.000070
     2.0285      0.000210
     2.0290      0.000560
     2.0295      0.000380
     2.0300      0.000310
     2.0305      0.000290
     2.0310      0.000060
     2.0315      0.000000
     2.0320      0.000000
     2.0325      0.000050
     2.0330      0.000210
     2.0335      0.000030
     2.0340      0.000000
     2.0345      0.000050
     2.0350      0.000270
     2.0355      0.000340
     2.0360      0.000550
     2.0365      0.000330
     2.0370      0.000220
     2.0375      0.000610
     2.0380      0.000000
     2.0385      0.000000
     2.0390      0.000000
     2.0395      0.000320
     2.0400      0.000900
     2.0405      0.000640
     2.0410      0.000130
     2.0415      0.000000
     2.0420      0.000030
     2.0425      0.000400
     2.0430      0.000670
     2.0435      0.001180
     2.0440      0.000970
     2.0445      0.000580
     2.0450      0.000410
     2.0455      0.000070
     2.0460      0.000220
     2.0465      0.000270
     2.0470      0.000260
     2.0475      0.000430
     2.0480      0.000540
     2.0485      0.000920
     2.0490      0.001000
     2.0495      0.000640
     2.0500      0.000510
     2.0505      0.000520
     2.0510      0.000670
     2.0515      0.000680
     2.0520      0.000480
     2.0525      0.000330
     2.0530      0.000210
     2.0535      0.000110
     2.0540      0.000010
     2.0545      0.000000
     2.0550      0.000000
     2.0555      0.000000
     2.0560      0.000090
     2.0565      0.000040
     2.0570      0.000040
     2.0575      0.000500
     2.0580      0.000560
     2.0585      0.000110
     2.0590      0.000120
     2.0595      0.000490
     2.0600      0.000590
     2.0605      0.000560
     2.0610      0.000290
     2.0615      0.000170
     2.0620      0.000550
     2.0625      0.000920
     2.0630      0.000830
     2.0635      0.000520
     2.0640      0.000350
     2.0645      0.000440
     2.0650      0.000570
     2.0655      0.000070
     2.0660      0.000020
     2.0665      0.000230
     2.0670      0.000190
     2.0675      0.000010
     2.0680      0.000000
     2.0685      0.000000
     2.0690      0.000050
     2.0695      0.000230
     2.0700      0.000150
     2.0705      0.000180
     2.0710      0.000560
     2.0715      0.000950
     2.0720      0.001020
     2.0725      0.000670
     2.0730      0.000950
     2.0735      0.001190
     2.0740      0.000960
     2.0745      0.000500
     2.0750      0.000300
     2.0755      0.000270
     2.0760      0.000000
     2.0765      0.000000
     2.0770      0.000140
     2.0775      0.000720
     2.0780      0.000730
     2.0785      0.000250
     2.0790      0.000000
     2.0795      0.000240
     2.0800      0.000560
     2.0805      0.000620
     2.0810      0.000920
     2.0815      0.000800
     2.0820      0.000560
     2.0825      0.000800
     2.0830      0.001140
     2.0835      0.001090
     2.0840      0.000820
     2.0845      0.000520
     2.0850      0.000380
     2.0855      0.000370
     2.0860      0.000200
     2.0865      0.000350
     2.0870      0.000350
     2.0875      0.000160
     2.0880      0.000210
     2.0885      0.000410
     2.0890      0.000490
     2.0895      0.000570
     2.0900      0.000670
     2.0905      0.000240
     2.0910      0.000000
     2.0915      0.000150
     2.0920      0.000650
     2.0925      0.000740
     2.0930      0.000710
     2.0935      0.000420
     2.0940      0.000100
     2.0945      0.000450
     2.0950      0.000730
     2.0955      0.000450
     2.0960      0.000450
     2.0965      0.000780
     2.0970      0.000570
     2.0975      0.000200
     2.0980      0.000030
     2.0985      0.000110
     2.0990      0.000320
     2.0995      0.000520
     2.1000      0.000680
     2.1005      0.000530
     2.1010      0.000200
     2.1015      0.000050
     2.1020      0.000220
     2.1025      0.000310
     2.1030      0.000480
     2.1035      0.000830
     2.1040      0.000910
     2.1045      0.000680
     2.1050      0.000460
     2.1055      0.000350
     2.1060      0.000230
     2.1065      0.000200
     2.1070      0.000630
     2.1075      0.000610
     2.1080      0.000000
     2.1085      0.000030
     2.1090      0.000140
     2.1095      0.000190
     2.1100      0.000170
     2.1105      0.000010
     2.1110      0.000020
     2.1115      0.000330
     2.1120      0.000860
     2.1125      0.001110
     2.1130      0.000960
     2.1135      0.001160
     2.1140      0.000980
     2.1145      0.000670
     2.1150      0.000590
     2.1155      0.000610
     2.1160      0.000720
     2.1165      0.000830
     2.1170      0.000790
     2.1175      0.000740
     2.1180      0.000650
     2.1185      0.000900
     2.1190      0.000760
     2.1195      0.000120
     2.1200      0.000500
     2.1205      0.000980
     2.1210      0.000830
     2.1215      0.000530
     2.1220      0.000440
     2.1225      0.000460
     2.1230      0.000550
     2.1235      0.000920
     2.1240      0.000650
     2.1245      0.000380
     2.1250      0.000530
     2.1255      0.000500
     2.1260      0.000510
     2.1265      0.000640
     2.1270      0.000630
     2.1275      0.000390
     2.1280      0.000460
     2.1285      0.000710
     2.1290      0.000700
     2.1295      0.000370
     2.1300      0.000180
     2.1305      0.000320
     2.1310      0.000090
     2.1315      0.000270
     2.1320      0.000730
     2.1325      0.000830
     2.1330      0.000650
     2.1335      0.000550
     2.1340      0.000520
     2.1345      0.000630
     2.1350      0.000840
     2.1355      0.000740
     2.1360      0.000750
     2.1365      0.000390
     2.1370      0.000070
     2.1375      0.000240
     2.1380      0.000470
     2.1385      0.000740
     2.1390      0.000700
     2.1395      0.000400
     2.1400      0.000110
     2.1405      0.000010
     2.1410      0.000000
     2.1415      0.000160
     2.1420      0.000010
     2.1425      0.000080
     2.1430      0.000310
     2.1435      0.000170
     2.1440      0.000020
     2.1445      0.000600
     2.1450      0.000790
     2.1455      0.000310
     2.1460      0.000000
     2.1465      0.000140
     2.1470      0.000610
     2.1475      0.000810
     2.1480      0.000890
     2.1485      0.000790
     2.1490      0.000660
     2.1495      0.000730
     2.1500      0.000570
     2.1505      0.000310
     2.1510      0.000270
     2.1515      0.000500
     2.1520      0.000460
     2.1525      0.000190
     2.1530      0.000390
     2.1535      0.000800
     2.1540      0.000800
     2.1545      0.000600
     2.1550      0.000580
     2.1555      0.000680
     2.1560      0.000660
     2.1565      0.000590
     2.1570      0.000660
     2.1575      0.000530
     2.1580      0.000230
     2.1585      0.000280
     2.1590      0.000160
     2.1595      0.000060
     2.1600      0.000260
     2.1605      0.000250
     2.1610      0.000050
     2.1615      0.000000
     2.1620      0.000310
     2.1625      0.000540
     2.1630      0.000570
     2.1635      0.000620
     2.1640      0.000250
     2.1645      0.000000
     2.1650      0.000000
     2.1655      0.000310
     2.1660      0.000620
     2.1665      0.000250
     2.1670      0.000340
     2.1675      0.000870
     2.1680      0.000840
     2.1685      0.000590
     2.1690      0.000180
     2.1695      0.000000
     2.1700      0.000030
     2.1705      0.000200
     2.1710      0.000460
     2.1715      0.000720
     2.1720      0.000910
     2.1725      0.000950
     2.1730      0.000940
     2.1735      0.001020
     2.1740      0.000950
     2.1745      0.001050
     2.1750      0.001150
     2.1755      0.000770
     2.1760      0.000760
     2.1765      0.000980
     2.1770      0.000740
     2.1775      0.000600
     2.1780      0.000690
     2.1785      0.000980
     2.1790      0.001000
     2.1795      0.001020
     2.1800      0.001180
     2.1805      0.001150
     2.1810      0.001240
     2.1815      0.001340
     2.1820      0.001270
     2.1825      0.000960
     2.1830      0.000830
     2.1835      0.000980
     2.1840      0.000990
     2.1845      0.001160
     2.1850      0.001540
     2.1855      0.001700
     2.1860      0.001410
     2.1865      0.001020
     2.1870      0.000930
     2.1875      0.000880
     2.1880      0.000640
     2.1885      0.000570
     2.1890      0.000760
     2.1895      0.000950
     2.1900      0.000910
     2.1905      0.000560
     2.1910      0.000400
     2.1915      0.000500
     2.1920      0.000390
     2.1925      0.000190
     2.1930      0.000250
     2.1935      0.000390
     2.1940      0.000330
     2.1945      0.000010
     2.1950      0.000010
     2.1955      0.000210
     2.1960      0.000110
     2.1965      0.000290
     2.1970      0.000630
     2.1975      0.000480
     2.1980      0.000450
     2.1985      0.000680
     2.1990      0.000780
     2.1995      0.000610
     2.2000      0.000340
     2.2005      0.000400
     2.2010      0.000310
     2.2015      0.000150
     2.2020      0.000650
     2.2025      0.000860
     2.2030      0.000660
     2.2035      0.000540
     2.2040      0.000460
     2.2045      0.000740
     2.2050      0.000850
     2.2055      0.000570
     2.2060      0.000810
     2.2065      0.001130
     2.2070      0.000990
     2.2075      0.000560
     2.2080      0.000070
     2.2085      0.000000
     2.2090      0.000080
     2.2095      0.000630
     2.2100      0.000710
     2.2105      0.000550
     2.2110      0.000560
     2.2115      0.000750
     2.2120      0.000790
     2.2125      0.000630
     2.2130      0.000490
     2.2135      0.000260
     2.2140      0.000370
     2.2145      0.000640
     2.2150      0.000590
     2.2155      0.000640
     2.2160      0.000580
     2.2165      0.000330
     2.2170      0.000120
     2.2175      0.000060
     2.2180      0.000210
     2.2185      0.000590
     2.2190      0.000720
     2.2195      0.000170
     2.2200      0.000000
     2.2205      0.000070
     2.2210      0.000260
     2.2215      0.000330
     2.2220      0.000420
     2.2225      0.000540
     2.2230      0.000500
     2.2235      0.000580
     2.2240      0.000930
     2.2245      0.001060
     2.2250      0.000550
     2.2255      0.000080
     2.2260      0.000000
     2.2265      0.000390
     2.2270      0.000710
     2.2275      0.000930
     2.2280      0.001210
     2.2285      0.000960
     2.2290      0.000800
     2.2295      0.000990
     2.2300      0.000880
     2.2305      0.000610
     2.2310      0.000680
     2.2315      0.001070
     2.2320      0.001280
     2.2325      0.001250
     2.2330      0.001190
     2.2335      0.001040
     2.2340      0.001000
     2.2345      0.001300
     2.2350      0.001580
     2.2355      0.001690
     2.2360      0.001720
     2.2365      0.001430
     2.2370      0.001130
     2.2375      0.001350
     2.2380      0.001610
     2.2385      0.001630
     2.2390      0.001520
     2.2395      0.001000
     2.2400      0.000470
     2.2405      0.000770
     2.2410      0.001370
     2.2415      0.001250
     2.2420      0.001060
     2.2425      0.001290
     2.2430      0.001110
     2.2435      0.000820
     2.2440      0.001170
     2.2445      0.001490
     2.2450      0.001320
     2.2455      0.000970
     2.2460      0.000860
     2.2465      0.000920
     2.2470      0.001050
     2.2475      0.001200
     2.2480      0.001180
     2.2485      0.001180
     2.2490      0.001100
     2.2495      0.000980
     2.2500      0.001050
     2.2505      0.001090
     2.2510      0.001070
     2.2515      0.001160
     2.2520      0.001440
     2.2525      0.001580
     2.2530      0.001420
     2.2535      0.001380
     2.2540      0.001560
     2.2545      0.001780
     2.2550      0.001810
     2.2555      0.001850
     2.2560      0.002210
     2.2565      0.002350
     2.2570      0.002050
     2.2575      0.001640
     2.2580      0.001420
     2.2585      0.001580
     2.2590      0.001790
     2.2595      0.001690
     2.2600      0.001740
     2.2605      0.002240
     2.2610      0.002810
     2.2615      0.003050
     2.2620      0.002940
     2.2625      0.002940
     2.2630      0.002960
     2.2635      0.002890
     2.2640      0.003200
     2.2645      0.003610
     2.2650      0.003960
     2.2655      0.004320
     2.2660      0.004470
     2.2665      0.004450
     2.2670      0.004350
     2.2675      0.004550
     2.2680      0.005240
     2.2685      0.006020
     2.2690      0.006780
     2.2695      0.007470
     2.2700      0.008340
     2.2705      0.009550
     2.2710      0.010530
     2.2715      0.011240
     2.2720      0.012280
     2.2725      0.014020
     2.2730      0.016200
     2.2735      0.018140
     2.2740      0.020300
     2.2745      0.023460
     2.2750      0.027060
     2.2755      0.031220
     2.2760      0.036720
     2.2765      0.043050
     2.2770      0.050520
     2.2775      0.059780
     2.2780      0.070430
     2.2785      0.083280
     2.2790      0.099070
     2.2795      0.117660
     2.2800      0.140120
     2.2805      0.167430
     2.2810      0.199650
     2.2815      0.237190
     2.2820      0.280650
     2.2825      0.329840
     2.2830      0.383970
     2.2835      0.442460
     2.2840      0.504150
     2.2845      0.567190
     2.2850      0.628960
     2.2855      0.686830
     2.2860      0.739560
     2.2865      0.786150
     2.2870      0.825640
     2.2875      0.857640
     2.2880      0.882550
     2.2885      0.901740
     2.2890      0.916020
     2.2895      0.926340
     2.2900      0.933460
     2.2905      0.937900
     2.2910      0.940860
     2.2915      0.942190
     2.2920      0.942200
     2.2925      0.941800
     2.2930      0.941050
     2.2935      0.940260
     2.2940      0.939350
     2.2945      0.938580
     2.2950      0.937860
     2.2955      0.936700
     2.2960      0.935850
     2.2965      0.935290
     2.2970      0.934520
     2.2975      0.933940
     2.2980      0.933640
     2.2985      0.933830
     2.2990      0.934540
     2.2995      0.935110
     2.3000      0.935280
     2.3005      0.935750
     2.3010      0.936870
     2.3015      0.938030
     2.3020      0.939140
     2.3025      0.940720
     2.3030      0.942610
     2.3035      0.944490
     2.3040      0.946300
     2.3045      0.948000
     2.3050      0.949580
     2.3055      0.950910
     2.3060      0.952010
     2.3065      0.952950
     2.3070      0.953330
     2.3075      0.953040
     2.3080      0.952560
     2.3085      0.951850
     2.3090      0.950650
     2.3095      0.948820
     2.3100      0.946190
     2.3105      0.943080
     2.3110      0.939590
     2.3115      0.935840
     2.3120      0.932000
     2.3125      0.927930
     2.3130      0.923810
     2.3135      0.919680
     2.3140      0.915540
     2.3145      0.911450
     2.3150      0.907710
     2.3155      0.904480
     2.3160      0.901230
     2.3165      0.898200
     2.3170      0.896070
     2.3175      0.895050
     2.3180      0.895150
     2.3185      0.896010
     2.3190      0.897120
     2.3195      0.898720
     2.3200      0.901220
     2.3205      0.904320
     2.3210      0.908050
     2.3215      0.912850
     2.3220      0.918170
     2.3225      0.923180
     2.3230      0.928140
     2.3235      0.933330
     2.3240      0.938630
     2.3245      0.943910
     2.3250      0.948620
     2.3255      0.952630
     2.3260      0.956190
     2.3265      0.959000
     2.3270      0.960770
     2.3275      0.961240
     2.3280      0.960990
     2.3285      0.960540
     2.3290      0.959250
     2.3295      0.956900
     2.3300      0.953780
     2.3305      0.950280
     2.3310      0.946860
     2.3315      0.943780
     2.3320      0.941280
     2.3325      0.939410
     2.3330      0.938240
     2.3335      0.938180
     2.3340      0.939390
     2.3345      0.941460
     2.3350      0.944020
     2.3355      0.946620
     2.3360      0.948220
     2.3365      0.947620
     2.3370      0.943120
     2.3375      0.932490
     2.3380      0.913550
     2.3385      0.883340
     2.3390      0.840310
     2.3395      0.784950
     2.3400      0.718660
     2.3405      0.644140
     2.3410      0.565590
     2.3415      0.487610
     2.3420      0.414090
     2.3425      0.347350
     2.3430      0.288510
     2.3435      0.238050
     2.3440      0.195870
     2.3445      0.161130
     2.3450      0.132650
     2.3455      0.109340
     2.3460      0.090480
     2.3465      0.075530
     2.3470      0.063670
     2.3475      0.054050
     2.3480      0.045650
     2.3485      0.038420
     2.3490      0.032740
     2.3495      0.028350
     2.3500      0.024900
     2.3505      0.022210
     2.3510      0.019870
     2.3515      0.017560
     2.3520      0.015440
     2.3525      0.013700
     2.3530      0.012290
     2.3535      0.011070
     2.3540      0.009970
     2.3545      0.009190
     2.3550      0.008760
     2.3555      0.008240
     2.3560      0.007550
     2.3565      0.007080
     2.3570      0.006810
     2.3575      0.006530
     2.3580      0.006150
     2.3585      0.005720
     2.3590      0.005450
     2.3595      0.005350
     2.3600      0.005180
     2.3605      0.004850
     2.3610      0.004650
     2.3615      0.004470
     2.3620      0.004130
     2.3625      0.004240
     2.3630      0.004450
     2.3635      0.004070
     2.3640      0.003630
     2.3645      0.003580
     2.3650      0.003670
     2.3655      0.003700
     2.3660      0.003580
     2.3665      0.003340
     2.3670      0.003190
     2.3675      0.003250
     2.3680      0.003230
     2.3685      0.003160
     2.3690      0.003180
     2.3695      0.003070
     2.3700      0.003170
     2.3705      0.003460
     2.3710      0.003470
     2.3715      0.003030
     2.3720      0.002530
     2.3725      0.002340
     2.3730      0.002410
     2.3735      0.002560
     2.3740      0.002800
     2.3745      0.003040
     2.3750      0.003130
     2.3755      0.003070
     2.3760      0.002860
     2.3765      0.002800
     2.3770      0.002660
     2.3775      0.002320
     2.3780      0.002020
     2.3785      0.001970
     2.3790      0.002140
     2.3795      0.002330
     2.3800      0.002430
     2.3805      0.002660
     2.3810      0.003010
     2.3815      0.002970
     2.3820      0.002870
     2.3825      0.002810
     2.3830      0.002510
     2.3835      0.002370
     2.3840      0.002530
     2.3845      0.002640
     2.3850      0.002480
     2.3855      0.002310
     2.3860      0.002310
     2.3865      0.002300
     2.3870      0.002290
     2.3875      0.002450
     2.3880      0.002480
     2.3885      0.002380
     2.3890      0.002460
     2.3895      0.002620
     2.3900      0.002610
     2.3905      0.002520
     2.3910      0.002600
     2.3915      0.002810
     2.3920      0.002780
     2.3925      0.002420
     2.3930      0.002350
     2.3935      0.002900
     2.3940      0.003200
     2.3945      0.002930
     2.3950      0.002690
     2.3955      0.002780
     2.3960      0.002870
     2.3965      0.002670
     2.3970      0.002420
     2.3975      0.002280
     2.3980      0.002290
     2.3985      0.002250
     2.3990      0.002230
     2.3995      0.002360
     2.4000      0.002550
     2.4005      0.002560
     2.4010      0.002250
     2.4015      0.001700
     2.4020      0.001270
     2.4025      0.001220
     2.4030      0.001500
     2.4035      0.001940
     2.4040      0.002120
     2.4045      0.001970
     2.4050      0.001790
     2.4055      0.001780
     2.4060      0.001850
     2.4065      0.001760
     2.4070      0.001440
     2.4075      0.001190
     2.4080      0.001200
     2.4085      0.001090
     2.4090      0.001020
     2.4095      0.001130
     2.4100      0.001320
     2.4105      0.001410
     2.4110      0.001230
     2.4115      0.000790
     2.4120      0.000500
     2.4125      0.000520
     2.4130      0.000440
     2.4135      0.000460
     2.4140      0.000740
     2.4145      0.001110
     2.4150      0.001270
     2.4155      0.001150
     2.4160      0.000960
     2.4165      0.000830
     2.4170      0.000620
     2.4175      0.000530
     2.4180      0.000750
     2.4185      0.001050
     2.4190      0.001070
     2.4195      0.000840
     2.4200      0.000700
     2.4205      0.000880
     2.4210      0.001030
     2.4215      0.001120
     2.4220      0.001370
     2.4225      0.001400
     2.4230      0.001140
     2.4235      0.000860
     2.4240      0.000800
     2.4245      0.000960
     2.4250      0.001130
     2.4255      0.001170
     2.4260      0.000960
     2.4265      0.000710
     2.4270      0.000700
     2.4275      0.000840
     2.4280      0.000930
     2.4285      0.000910
     2.4290      0.000890
     2.4295      0.000660
     2.4300      0.000450
     2.4305      0.000740
     2.4310      0.001040
     2.4315      0.001320
     2.4320      0.001490
     2.4325      0.001270
     2.4330      0.000620
     2.4335      0.000470
     2.4340      0.000870
     2.4345      0.000840
     2.4350      0.000650
     2.4355      0.000560
     2.4360      0.000740
     2.4365      0.000990
     2.4370      0.000870
     2.4375      0.000430
     2.4380      0.000520
     2.4385      0.000450
     2.4390      0.000160
     2.4395      0.000200
     2.4400      0.000540
     2.4405      0.000710
     2.4410      0.000420
     2.4415      0.000150
     2.4420      0.000480
     2.4425      0.000810
     2.4430      0.000840
     2.4435      0.000810
     2.4440      0.000860
     2.4445      0.000880
     2.4450      0.000760
     2.4455      0.000920
     2.4460      0.001090
     2.4465      0.000990
     2.4470      0.000800
     2.4475      0.000660
     2.4480      0.000590
     2.4485      0.000530
     2.4490      0.000520
     2.4495      0.000620
     2.4500      0.000880
     2.4505      0.001070
     2.4510      0.001040
     2.4515      0.000940
     2.4520      0.001030
     2.4525      0.001300
     2.4530      0.001130
     2.4535      0.000920
     2.4540      0.000940
     2.4545      0.001050
     2.4550      0.001150
     2.4555      0.001120
     2.4560      0.000820
     2.4565      0.000600
     2.4570      0.000750
     2.4575      0.000760
     2.4580      0.000700
     2.4585      0.000690
     2.4590      0.000710
     2.4595      0.000650
     2.4600      0.000680
     2.4605      0.000730
     2.4610      0.000720
     2.4615      0.000630
     2.4620      0.000570
     2.4625      0.000620
     2.4630      0.000720
     2.4635      0.000630
     2.4640      0.000650
     2.4645      0.000550
     2.4650      0.000450
     2.4655      0.000600
     2.4660      0.001020
     2.4665      0.001120
     2.4670      0.000820
     2.4675      0.000630
     2.4680      0.000480
     2.4685      0.000470
     2.4690      0.000630
     2.4695      0.000890
     2.4700      0.001090
     2.4705      0.000980
     2.4710      0.000700
     2.4715      0.000450
     2.4720      0.000250
     2.4725      0.000090
     2.4730      0.000000
     2.4735      0.000000
     2.4740      0.000000
     2.4745      0.000160
     2.4750      0.000180
     2.4755      0.000060
     2.4760      0.000040
     2.4765      0.000220
     2.4770      0.000280
     2.4775      0.000320
     2.4780      0.000350
     2.4785      0.000410
     2.4790      0.000520
     2.4795      0.000630
     2.4800      0.000500
     2.4805      0.000300
     2.4810      0.000220
     2.4815      0.000220
     2.4820      0.000340
     2.4825      0.000590
     2.4830      0.000850
     2.4835      0.000760
     2.4840      0.000620
     2.4845      0.000590
     2.4850      0.000570
     2.4855      0.000400
     2.4860      0.000150
     2.4865      0.000240
     2.4870      0.000440
     2.4875      0.000520
     2.4880      0.000470
     2.4885      0.000340
     2.4890      0.000200
     2.4895      0.000210
     2.4900      0.000450
     2.4905      0.000610
     2.4910      0.000510
     2.4915      0.000220
     2.4920      0.000110
     2.4925      0.000490
     2.4930      0.000560
     2.4935      0.000490
     2.4940      0.000630
     2.4945      0.000900
     2.4950      0.000820
     2.4955      0.000420
     2.4960      0.000410
     2.4965      0.000430
     2.4970      0.000400
     2.4975      0.000400
     2.4980      0.000630
     2.4985      0.000940
     2.4990      0.000950
     2.4995      0.000730
     2.5000      0.000480
     2.5005      0.000420
     2.5010      0.000600
     2.5015      0.000850
     2.5020      0.001090
     2.5025      0.001350
     2.5030      0.001510
     2.5035      0.001450
     2.5040      0.001140
     2.5045      0.000910
     2.5050      0.000800
     2.5055      0.000760
     2.5060      0.000750
     2.5065      0.000740
     2.5070      0.000660
     2.5075      0.000360
     2.5080      0.000110
     2.5085      0.000000
     2.5090      0.000000
     2.5095      0.000010
     2.5100      0.000110
     2.5105      0.000280
     2.5110      0.000260
     2.5115      0.000150
     2.5120      0.000150
     2.5125      0.000500
     2.5130      0.000790
     2.5135      0.000720
     2.5140      0.000560
     2.5145      0.000420
     2.5150      0.000350
     2.5155      0.000290
     2.5160      0.000300
     2.5165      0.000190
     2.5170      0.000060
     2.5175      0.000070
     2.5180      0.000310
     2.5185      0.000210
     2.5190      0.000180
     2.5195      0.000460
     2.5200      0.000800
     2.5205      0.000830
     2.5210      0.000600
     2.5215      0.000410
     2.5220      0.000280
     2.5225      0.000270
     2.5230      0.000330
     2.5235      0.000150
     2.5240      0.000030
     2.5245      0.000280
     2.5250      0.000630
     2.5255      0.000880
     2.5260      0.000900
     2.5265      0.000730
     2.5270      0.000670
     2.5275      0.000770
     2.5280      0.000870
     2.5285      0.000760
     2.5290      0.000480
     2.5295      0.000380
     2.5300      0.000460
     2.5305      0.000660
     2.5310      0.000870
     2.5315      0.000890
     2.5320      0.000660
     2.5325      0.000300
     2.5330      0.000060
     2.5335      0.000090
     2.5340      0.000420
     2.5345      0.000790
     2.5350      0.000720
     2.5355      0.000540
     2.5360      0.000410
     2.5365      0.000380
     2.5370      0.000260
     2.5375      0.000530
     2.5380      0.000820
     2.5385      0.000870
     2.5390      0.000530
     2.5395      0.000490
     2.5400      0.000600
     2.5405      0.000520
     2.5410      0.000400
     2.5415      0.000410
     2.5420      0.000510
     2.5425      0.000290
     2.5430      0.000160
     2.5435      0.000200
     2.5440      0.000360
     2.5445      0.000250
     2.5450      0.000240
     2.5455      0.000450
     2.5460      0.000740
     2.5465      0.000950
     2.5470      0.001000
     2.5475      0.000700
     2.5480      0.000290
     2.5485      0.000000
     2.5490      0.000000
     2.5495      0.000000
     2.5500      0.000000
     2.5505      0.000010
     2.5510      0.000110
     2.5515      0.000310
     2.5520      0.000290
     2.5525      0.000300
     2.5530      0.000340
     2.5535      0.000350
     2.5540      0.000270
     2.5545      0.000420
     2.5550      0.000820
     2.5555      0.001070
     2.5560      0.001000
     2.5565      0.000590
     2.5570      0.000370
     2.5575      0.000330
     2.5580      0.000290
     2.5585      0.000210
     2.5590      0.000220
     2.5595      0.000420
     2.5600      0.000490
     2.5605      0.000330
     2.5610      0.000030
     2.5615      0.000000
     2.5620      0.000000
     2.5625      0.000000
     2.5630      0.000210
     2.5635      0.000670
     2.5640      0.000870
     2.5645      0.000610
     2.5650      0.000310
     2.5655      0.000150
     2.5660      0.000250
     2.5665      0.000600
     2.5670      0.000890
     2.5675      0.001010
     2.5680      0.000970
     2.5685      0.000830
     2.5690      0.000190
     2.5695      0.000000
     2.5700      0.000100
     2.5705      0.000360
     2.5710      0.000830
     2.5715      0.000800
     2.5720      0.000820
     2.5725      0.000960
     2.5730      0.001170
     2.5735      0.001000
     2.5740      0.000910
     2.5745      0.000920
     2.5750      0.000970
     2.5755      0.000930
     2.5760      0.000770
     2.5765      0.000520
     2.5770      0.000270
     2.5775      0.000090
     2.5780      0.000140
     2.5785      0.000230
     2.5790      0.000220
     2.5795      0.000150
     2.5800      0.000150
     2.5805      0.000270
     2.5810      0.000450
     2.5815      0.000700
     2.5820      0.001040
     2.5825      0.001430
     2.5830      0.001580
     2.5835      0.001320
     2.5840      0.000840
     2.5845      0.000630
     2.5850      0.000610
     2.5855      0.000580
     2.5860      0.000630
     2.5865      0.000840
     2.5870      0.000980
     2.5875      0.000730
     2.5880      0.000390
     2.5885      0.000160
     2.5890      0.000350
     2.5895      0.000830
     2.5900      0.000970
     2.5905      0.000840
     2.5910      0.000570
     2.5915      0.000440
     2.5920      0.000400
     2.5925      0.000440
     2.5930      0.000570
     2.5935      0.000840
     2.5940      0.001070
     2.5945      0.001070
     2.5950      0.001140
     2.5955      0.001860
     2.5960      0.001890
     2.5965      0.001120
     2.5970      0.000270
     2.5975      0.000040
     2.5980      0.000580
     2.5985      0.000750
     2.5990      0.000730
     2.5995      0.000650
     2.6000      0.000830
     2.6005      0.000870
     2.6010      0.000700
     2.6015      0.000450
     2.6020      0.000370
     2.6025      0.000480
     2.6030      0.000580
     2.6035      0.000690
     2.6040      0.000850
     2.6045      0.001180
     2.6050      0.001430
     2.6055      0.001390
     2.6060      0.000990
     2.6065      0.000590
     2.6070      0.000370
     2.6075      0.000410
     2.6080      0.000710
     2.6085      0.001080
     2.6090      0.000970
     2.6095      0.000560
     2.6100      0.000080
     2.6105      0.000070
     2.6110      0.000020
     2.6115      0.000010
     2.6120      0.000270
     2.6125      0.001130
     2.6130      0.001480
     2.6135      0.001390
     2.6140      0.001080
     2.6145      0.000780
     2.6150      0.000310
     2.6155      0.000300
     2.6160      0.000750
     2.6165      0.001580
     2.6170      0.001420
     2.6175      0.001290
     2.6180      0.001120
     2.6185      0.000900
     2.6190      0.000680
     2.6195      0.000990
     2.6200      0.001200
     2.6205      0.001080
     2.6210      0.000760
     2.6215      0.000810
     2.6220      0.000830
     2.6225      0.000700
     2.6230      0.000380
     2.6235      0.000360
     2.6240      0.000520
     2.6245      0.000760
     2.6250      0.000690
     2.6255      0.000250
     2.6260      0.000000
     2.6265      0.000000
     2.6270      0.000000
     2.6275      0.000140
     2.6280      0.000300
     2.6285      0.000460
     2.6290      0.000660
     2.6295      0.001110
     2.6300      0.001320
     2.6305      0.001140
     2.6310      0.000560
     2.6315      0.000340
     2.6320      0.000260
     2.6325      0.000280
     2.6330      0.000280
     2.6335      0.000440
     2.6340      0.000650
     2.6345      0.000870
     2.6350      0.000990
     2.6355      0.001080
     2.6360      0.000970
     2.6365      0.000650
     2.6370      0.000290
     2.6375      0.000500
     2.6380      0.000740
     2.6385      0.000810
     2.6390      0.000580
     2.6395      0.000630
     2.6400      0.000630
     2.6405      0.000460
     2.6410      0.000390
     2.6415      0.000560
     2.6420      0.000640
     2.6425      0.000450
     2.6430      0.000450
     2.6435      0.000590
     2.6440      0.000680
     2.6445      0.000590
     2.6450      0.000510
     2.6455      0.000480
     2.6460      0.000480
     2.6465      0.000500
     2.6470      0.000500
     2.6475      0.000460
     2.6480      0.000370
     2.6485      0.000230
     2.6490      0.000070
     2.6495      0.000010
     2.6500      0.000120
     2.6505      0.000580
     2.6510      0.000790
     2.6515      0.000770
     2.6520      0.000560
     2.6525      0.000350
     2.6530      0.000340
     2.6535      0.000450
     2.6540      0.000660
     2.6545      0.000900
     2.6550      0.000890
     2.6555      0.000730
     2.6560      0.000530
     2.6565      0.000760
     2.6570      0.001000
     2.6575      0.001130
     2.6580      0.000880
     2.6585      0.000600
     2.6590      0.000580
     2.6595      0.000820
     2.6600      0.001220
     2.6605      0.001320
     2.6610      0.001170
     2.6615      0.000790
     2.6620      0.000610
     2.6625      0.000550
     2.6630      0.000450
     2.6635      0.000190
     2.6640      0.000140
     2.6645      0.000420
     2.6650      0.000920
     2.6655      0.001350
     2.6660      0.001690
     2.6665      0.001400
     2.6670      0.000530
     2.6675      0.000110
     2.6680      0.000280
     2.6685      0.000870
     2.6690      0.001820
     2.6695      0.002440
     2.6700      0.001950
     2.6705      0.000990
     2.6710      0.000710
     2.6715      0.000930
     2.6720      0.001200
     2.6725      0.001390
     2.6730      0.001350
     2.6735      0.001240
     2.6740      0.001050
     2.6745      0.000780
     2.6750      0.000270
     2.6755      0.000030
     2.6760      0.000100
     2.6765      0.000540
     2.6770      0.000690
     2.6775      0.000710
     2.6780      0.000620
     2.6785      0.000490
     2.6790      0.000620
     2.6795      0.000940
     2.6800      0.001450
     2.6805      0.001530
     2.6810      0.001320
     2.6815      0.000870
     2.6820      0.000510
     2.6825      0.000420
     2.6830      0.000430
     2.6835      0.000460
     2.6840      0.000510
     2.6845      0.000550
     2.6850      0.000500
     2.6855      0.000080
     2.6860      0.000000
     2.6865      0.000110
     2.6870      0.000370
     2.6875      0.000100
     2.6880      0.000000
     2.6885      0.000130
     2.6890      0.000680
     2.6895      0.000730
     2.6900      0.000590
     2.6905      0.000350
     2.6910      0.000400
     2.6915      0.000430
     2.6920      0.000510
     2.6925      0.000740
     2.6930      0.001020
     2.6935      0.000980
     2.6940      0.000570
     2.6945      0.000310
     2.6950      0.000570
     2.6955      0.001100
     2.6960      0.001710
     2.6965      0.001750
     2.6970      0.001560
     2.6975      0.001210
     2.6980      0.000990
     2.6985      0.001150
     2.6990      0.001520
     2.6995      0.001940
     2.7000      0.001850
     2.7005      0.001630
     2.7010      0.001350
     2.7015      0.001230
     2.7020      0.000980
     2.7025      0.000730
     2.7030      0.000790
     2.7035      0.001040
     2.7040      0.001160
     2.7045      0.001030
     2.7050      0.000990
     2.7055      0.000890
     2.7060      0.000760
     2.7065      0.000860
     2.7070      0.001410
     2.7075      0.001940
     2.7080      0.002140
     2.7085      0.002060
     2.7090      0.002100
     2.7095      0.002320
     2.7100      0.002970
     2.7105      0.003890
     2.7110      0.004630
     2.7115      0.004480
     2.7120      0.004470
     2.7125      0.004470
     2.7130      0.004450
     2.7135      0.004280
     2.7140      0.004340
     2.7145      0.004580
     2.7150      0.004820
     2.7155      0.005100
     2.7160      0.005350
     2.7165      0.005520
     2.7170      0.005600
     2.7175      0.005740
     2.7180      0.005940
     2.7185      0.005760
     2.7190      0.005660
     2.7195      0.005770
     2.7200      0.006600
     2.7205      0.006670
     2.7210      0.006090
     2.7215      0.004690
     2.7220      0.003720
     2.7225      0.003290
     2.7230      0.003410
     2.7235      0.003810
     2.7240      0.003870
     2.7245      0.003770
     2.7250      0.003890
     2.7255      0.003600
     2.7260      0.003070
     2.7265      0.002290
     2.7270      0.001980
     2.7275      0.002000
     2.7280      0.002370
     2.7285      0.002750
     2.7290      0.002840
     2.7295      0.002710
     2.7300      0.002510
     2.7305      0.002540
     2.7310      0.002720
     2.7315      0.003070
     2.7320      0.003190
     2.7325      0.003040
     2.7330      0.002550
     2.7335      0.002510
     2.7340      0.002710
     2.7345      0.003030
     2.7350      0.002500
     2.7355      0.002180
     2.7360      0.002070
     2.7365      0.002310
     2.7370      0.002470
     2.7375      0.002650
     2.7380      0.002940
     2.7385      0.003250
     2.7390      0.003650
     2.7395      0.004170
     2.7400      0.004700
     2.7405      0.004840
     2.7410      0.004580
     2.7415      0.004260
     2.7420      0.004230
     2.7425      0.004400
     2.7430      0.004640
     2.7435      0.004790
     2.7440      0.004880
     2.7445      0.004890
     2.7450      0.004870
     2.7455      0.004830
     2.7460      0.004780
     2.7465      0.005090
     2.7470      0.005560
     2.7475      0.006200
     2.7480      0.006240
     2.7485      0.005920
     2.7490      0.005340
     2.7495      0.005190
     2.7500      0.005520
     2.7505      0.006080
     2.7510      0.006400
     2.7515      0.006350
     2.7520      0.006220
     2.7525      0.006310
     2.7530      0.006380
     2.7535      0.006440
     2.7540      0.006520
     2.7545      0.007140
     2.7550      0.007750
     2.7555      0.008230
     2.7560      0.007910
     2.7565      0.007490
     2.7570      0.007030
     2.7575      0.006700
     2.7580      0.006570
     2.7585      0.006650
     2.7590      0.006930
     2.7595      0.006970
     2.7600      0.006820
     2.7605      0.006450
     2.7610      0.006550
     2.7615      0.007030
     2.7620      0.008070
     2.7625      0.008630
     2.7630      0.008860
     2.7635      0.008620
     2.7640      0.008290
     2.7645      0.007950
     2.7650      0.007640
     2.7655      0.007710
     2.7660      0.008070
     2.7665      0.008830
     2.7670      0.009400
     2.7675      0.009670
     2.7680      0.009540
     2.7685      0.009310
     2.7690      0.009170
     2.7695      0.009150
     2.7700      0.008960
     2.7705      0.008850
     2.7710      0.008830
     2.7715      0.009210
     2.7720      0.009600
     2.7725      0.009990
     2.7730      0.010290
     2.7735      0.010650
     2.7740      0.011090
     2.7745      0.011870
     2.7750      0.012600
     2.7755      0.013210
     2.7760      0.013160
     2.7765      0.013080
     2.7770      0.013000
     2.7775      0.013170
     2.7780      0.013230
     2.7785      0.013240
     2.7790      0.013290
     2.7795      0.013450
     2.7800      0.013680
     2.7805      0.014040
     2.7810      0.014560
     2.7815      0.015150
     2.7820      0.015730
     2.7825      0.016130
     2.7830      0.016450
     2.7835      0.016720
     2.7840      0.017180
     2.7845      0.017740
     2.7850      0.018400
     2.7855      0.019030
     2.7860      0.019570
     2.7865      0.019920
     2.7870      0.020390
     2.7875      0.020850
     2.7880      0.021170
     2.7885      0.021200
     2.7890      0.021170
     2.7895      0.021300
     2.7900      0.021470
     2.7905      0.021670
     2.7910      0.021930
     2.7915      0.022130
     2.7920      0.022260
     2.7925      0.022220
     2.7930      0.022360
     2.7935      0.022610
     2.7940      0.022970
     2.7945      0.023340
     2.7950      0.023760
     2.7955      0.024430
     2.7960      0.025390
     2.7965      0.026460
     2.7970      0.027480
     2.7975      0.028070
     2.7980      0.028460
     2.7985      0.028940
     2.7990      0.029610
     2.7995      0.030370
     2.8000      0.031070
     2.8005      0.031870
     2.8010      0.032750
     2.8015      0.033820
     2.8020      0.034970
     2.8025      0.036200
     2.8030      0.037620
     2.8035      0.038850
     2.8040      0.039900
     2.8045      0.040240
     2.8050      0.040740
     2.8055      0.041400
     2.8060      0.042390
     2.8065      0.043370
     2.8070      0.044330
     2.8075      0.045770
     2.8080      0.047230
     2.8085      0.048690
     2.8090      0.049930
     2.8095      0.051310
     2.8100      0.052870
     2.8105      0.054760
     2.8110      0.056720
     2.8115      0.058740
     2.8120      0.060730
     2.8125      0.062690
     2.8130      0.064580
     2.8135      0.066520
     2.8140      0.068600
     2.8145      0.071010
     2.8150      0.073130
     2.8155      0.075110
     2.8160      0.076920
     2.8165      0.079360
     2.8170      0.082160
     2.8175      0.085420
     2.8180      0.088710
     2.8185      0.091980
     2.8190      0.094930
     2.8195      0.098100
     2.8200      0.101440
     2.8205      0.105240
     2.8210      0.108870
     2.8215      0.112360
     2.8220      0.116140
     2.8225      0.120080
     2.8230      0.124220
     2.8235      0.128610
     2.8240      0.133100
     2.8245      0.137730
     2.8250      0.142420
     2.8255      0.147270
     2.8260      0.152440
     2.8265      0.157890
     2.8270      0.163420
     2.8275      0.168850
     2.8280      0.174020
     2.8285      0.179080
     2.8290      0.184260
     2.8295      0.189690
     2.8300      0.195340
     2.8305      0.201380
     2.8310      0.207360
     2.8315      0.213280
     2.8320      0.219010
     2.8325      0.224860
     2.8330      0.230920
     2.8335      0.236470
     2.8340      0.241740
     2.8345      0.246550
     2.8350      0.251190
     2.8355      0.255630
     2.8360      0.259480
     2.8365      0.262980
     2.8370      0.266240
     2.8375      0.268910
     2.8380      0.271070
     2.8385      0.272770
     2.8390      0.273320
     2.8395      0.273610
     2.8400      0.273590
     2.8405      0.273720
     2.8410      0.273590
     2.8415      0.272820
     2.8420      0.271010
     2.8425      0.268720
     2.8430      0.265810
     2.8435      0.262830
     2.8440      0.259810
     2.8445      0.256700
     2.8450      0.253110
     2.8455      0.249070
     2.8460      0.244620
     2.8465      0.240160
     2.8470      0.235700
     2.8475      0.231400
     2.8480      0.227160
     2.8485      0.222990
     2.8490      0.217950
     2.8495      0.212490
     2.8500      0.206680
     2.8505      0.201270
     2.8510      0.196150
     2.8515      0.191110
     2.8520      0.186180
     2.8525      0.181390
     2.8530      0.177210
     2.8535      0.173050
     2.8540      0.168700
     2.8545      0.163790
     2.8550      0.158750
     2.8555      0.154170
     2.8560      0.150230
     2.8565      0.146770
     2.8570      0.143380
     2.8575      0.139750
     2.8580      0.135790
     2.8585      0.131940
     2.8590      0.128290
     2.8595      0.125110
     2.8600      0.122100
     2.8605      0.119170
     2.8610      0.116240
     2.8615      0.113270
     2.8620      0.110270
     2.8625      0.107630
     2.8630      0.105140
     2.8635      0.102850
     2.8640      0.100350
     2.8645      0.097910
     2.8650      0.095810
     2.8655      0.094020
     2.8660      0.092370
     2.8665      0.090070
     2.8670      0.087830
     2.8675      0.085660
     2.8680      0.084240
     2.8685      0.082830
     2.8690      0.081210
     2.8695      0.079480
     2.8700      0.077770
     2.8705      0.076400
     2.8710      0.075010
     2.8715      0.073600
     2.8720      0.072340
     2.8725      0.071220
     2.8730      0.070330
     2.8735      0.069360
     2.8740      0.068310
     2.8745      0.066950
     2.8750      0.065700
     2.8755      0.064520
     2.8760      0.063860
     2.8765      0.063200
     2.8770      0.062510
     2.8775      0.061690
     2.8780      0.060860
     2.8785      0.060080
     2.8790      0.059270
     2.8795      0.058440
     2.8800      0.057750
     2.8805      0.057120
     2.8810      0.056600
     2.8815      0.055980
     2.8820      0.055320
     2.8825      0.054640
     2.8830      0.054060
     2.8835      0.053530
     2.8840      0.053040
     2.8845      0.052540
     2.8850      0.052020
     2.8855      0.051530
     2.8860      0.051060
     2.8865      0.050670
     2.8870      0.050310
     2.8875      0.049970
     2.8880      0.049670
     2.8885      0.049420
     2.8890      0.049270
     2.8895      0.049160
     2.8900      0.049060
     2.8905      0.048810
     2.8910      0.048640
     2.8915      0.048530
     2.8920      0.048600
     2.8925      0.048600
     2.8930      0.048390
     2.8935      0.048150
     2.8940      0.047890
     2.8945      0.047720
     2.8950      0.047400
     2.8955      0.046890
     2.8960      0.046480
     2.8965      0.046200
     2.8970      0.046330
     2.8975      0.046370
     2.8980      0.046370
     2.8985      0.046330
     2.8990      0.046460
     2.8995      0.046870
     2.9000      0.047010
     2.9005      0.046970
     2.9010      0.046360
     2.9015      0.045940
     2.9020      0.045700
     2.9025      0.045820
     2.9030      0.045970
     2.9035      0.046100
     2.9040      0.046220
     2.9045      0.046330
     2.9050      0.046290
     2.9055      0.046200
     2.9060      0.046000
     2.9065      0.046220
     2.9070      0.046610
     2.9075      0.047220
     2.9080      0.047530
     2.9085      0.047510
     2.9090      0.047480
     2.9095      0.047500
     2.9100      0.047710
     2.9105      0.047980
     2.9110      0.048280
     2.9115      0.048810
     2.9120      0.049280
     2.9125      0.049580
     2.9130      0.049620
     2.9135      0.049530
     2.9140      0.049590
     2.9145      0.049750
     2.9150      0.050060
     2.9155      0.050320
     2.9160      0.050580
     2.9165      0.050970
     2.9170      0.051600
     2.9175      0.052480
     2.9180      0.053290
     2.9185      0.053940
     2.9190      0.054030
     2.9195      0.054090
     2.9200      0.054130
     2.9205      0.054770
     2.9210      0.055490
     2.9215      0.056250
     2.9220      0.056750
     2.9225      0.057100
     2.9230      0.057510
     2.9235      0.057940
     2.9240      0.058390
     2.9245      0.058720
     2.9250      0.058990
     2.9255      0.059510
     2.9260      0.060160
     2.9265      0.061010
     2.9270      0.061710
     2.9275      0.062350
     2.9280      0.062960
     2.9285      0.063660
     2.9290      0.064510
     2.9295      0.065100
     2.9300      0.065600
     2.9305      0.065910
     2.9310      0.066450
     2.9315      0.067260
     2.9320      0.068370
     2.9325      0.069530
     2.9330      0.070440
     2.9335      0.071250
     2.9340      0.071930
     2.9345      0.072770
     2.9350      0.073640
     2.9355      0.074440
     2.9360      0.075310
     2.9365      0.076220
     2.9370      0.077440
     2.9375      0.078720
     2.9380      0.080050
     2.9385      0.081410
     2.9390      0.082800
     2.9395      0.083950
     2.9400      0.085010
     2.9405      0.085860
     2.9410      0.087020
     2.9415      0.088480
     2.9420      0.090140
     2.9425      0.091750
     2.9430      0.092950
     2.9435      0.094250
     2.9440      0.095650
     2.9445      0.097290
     2.9450      0.098930
     2.9455      0.100250
     2.9460      0.101660
     2.9465      0.103180
     2.9470      0.104980
     2.9475      0.106820
     2.9480      0.108410
     2.9485      0.110010
     2.9490      0.111610
     2.9495      0.113360
     2.9500      0.115170
     2.9505      0.117120
     2.9510      0.119220
     2.9515      0.121510
     2.9520      0.123870
     2.9525      0.126230
     2.9530      0.128380
     2.9535      0.130520
     2.9540      0.132640
     2.9545      0.134850
     2.9550      0.137100
     2.9555      0.139210
     2.9560      0.141430
     2.9565      0.143860
     2.9570      0.146540
     2.9575      0.149370
     2.9580      0.151950
     2.9585      0.154500
     2.9590      0.156940
     2.9595      0.159540
     2.9600      0.162240
     2.9605      0.165260
     2.9610      0.168290
     2.9615      0.171200
     2.9620      0.174010
     2.9625      0.176720
     2.9630      0.180010
     2.9635      0.183450
     2.9640      0.186980
     2.9645      0.190270
     2.9650      0.193240
     2.9655      0.196440
     2.9660      0.199740
     2.9665      0.203500
     2.9670      0.207280
     2.9675      0.211070
     2.9680      0.214810
     2.9685      0.218500
     2.9690      0.222170
     2.9695      0.225900
     2.9700      0.229870
     2.9705      0.233920
     2.9710      0.238050
     2.9715      0.241970
     2.9720      0.245880
     2.9725      0.249870
     2.9730      0.254120
     2.9735      0.258680
     2.9740      0.263490
     2.9745      0.268380
     2.9750      0.272950
     2.9755      0.277320
     2.9760      0.281250
     2.9765      0.285240
     2.9770      0.289290
     2.9775      0.293930
     2.9780      0.298610
     2.9785      0.303140
     2.9790      0.307480
     2.9795      0.311610
     2.9800      0.316070
     2.9805      0.320660
     2.9810      0.325560
     2.9815      0.330310
     2.9820      0.334800
     2.9825      0.339170
     2.9830      0.343450
     2.9835      0.347970
     2.9840      0.352540
     2.9845      0.357160
     2.9850      0.361800
     2.9855      0.366440
     2.9860      0.371140
     2.9865      0.375840
     2.9870      0.380140
     2.9875      0.384260
     2.9880      0.387970
     2.9885      0.391760
     2.9890      0.395610
     2.9895      0.399980
     2.9900      0.404420
     2.9905      0.408810
     2.9910      0.413060
     2.9915      0.417140
     2.9920      0.421170
     2.9925      0.425180
     2.9930      0.429020
     2.9935      0.432760
     2.9940      0.436200
     2.9945      0.439610
     2.9950      0.442990
     2.9955      0.446770
     2.9960      0.450660
     2.9965      0.454350
     2.9970      0.457720
     2.9975      0.460360
     2.9980      0.462690
     2.9985      0.464780
     2.9990      0.467020
     2.9995      0.469330
     3.0000      0.471910
     3.0005      0.474370
     3.0010      0.476620
     3.0015      0.478620
     3.0020      0.480470
     3.0025      0.482170
     3.0030      0.483790
     3.0035      0.485140
     3.0040      0.486440
     3.0045      0.487680
     3.0050      0.488770
     3.0055      0.489790
     3.0060      0.490330
     3.0065      0.490840
     3.0070      0.491350
     3.0075      0.492010
     3.0080      0.492850
     3.0085      0.493410
     3.0090      0.493840
     3.0095      0.493580
     3.0100      0.493240
     3.0105      0.492700
     3.0110      0.492240
     3.0115      0.491850
     3.0120      0.491590
     3.0125      0.491380
     3.0130      0.490770
     3.0135      0.490050
     3.0140      0.488990
     3.0145      0.487790
     3.0150      0.486440
     3.0155      0.484970
     3.0160      0.483450
     3.0165      0.482440
     3.0170      0.481400
     3.0175      0.480220
     3.0180      0.478670
     3.0185      0.476640
     3.0190      0.474670
     3.0195      0.472720
     3.0200      0.471170
     3.0205      0.469620
     3.0210      0.468020
     3.0215      0.466140
     3.0220      0.463870
     3.0225      0.461560
     3.0230      0.459240
     3.0235      0.457680
     3.0240      0.456210
     3.0245      0.454690
     3.0250      0.452850
     3.0255      0.450430
     3.0260      0.447900
     3.0265      0.445300
     3.0270      0.443130
     3.0275      0.441070
     3.0280      0.439260
     3.0285      0.437480
     3.0290      0.435790
     3.0295      0.434060
     3.0300      0.432310
     3.0305      0.430470
     3.0310      0.428600
     3.0315      0.426880
     3.0320      0.425080
     3.0325      0.422970
     3.0330      0.420810
     3.0335      0.418570
     3.0340      0.416890
     3.0345      0.415490
     3.0350      0.414130
     3.0355      0.412690
     3.0360      0.410600
     3.0365      0.408580
     3.0370      0.406690
     3.0375      0.405190
     3.0380      0.404000
     3.0385      0.402940
     3.0390      0.401920
     3.0395      0.400920
     3.0400      0.399860
     3.0405      0.398590
     3.0410      0.397360
     3.0415      0.396160
     3.0420      0.395340
     3.0425      0.394720
     3.0430      0.393830
     3.0435      0.392880
     3.0440      0.391760
     3.0445      0.390840
     3.0450      0.390420
     3.0455      0.390080
     3.0460      0.389820
     3.0465      0.389330
     3.0470      0.388760
     3.0475      0.388220
     3.0480      0.387760
     3.0485      0.387720
     3.0490      0.387730
     3.0495      0.387810
     3.0500      0.387870
     3.0505      0.387930
     3.0510      0.388210
     3.0515      0.388570
     3.0520      0.388830
     3.0525      0.389090
     3.0530      0.389400
     3.0535      0.389940
     3.0540      0.390880
     3.0545      0.391880
     3.0550      0.392920
     3.0555      0.393650
     3.0560      0.394280
     3.0565      0.395110
     3.0570      0.396010
     3.0575      0.397260
     3.0580      0.398450
     3.0585      0.399510
     3.0590      0.400520
     3.0595      0.401510
     3.0600      0.402960
     3.0605      0.404560
     3.0610      0.406680
     3.0615      0.408740
     3.0620      0.410270
     3.0625      0.411780
     3.0630      0.413230
     3.0635      0.415270
     3.0640      0.417860
     3.0645      0.420280
     3.0650      0.422620
     3.0655      0.424690
     3.0660      0.426800
     3.0665      0.429680
     3.0670      0.432590
     3.0675      0.435540
     3.0680      0.438500
     3.0685      0.441450
     3.0690      0.444400
     3.0695      0.447350
     3.0700      0.450270
     3.0705      0.453180
     3.0710      0.456670
     3.0715      0.460150
     3.0720      0.463560
     3.0725      0.466860
     3.0730      0.469980
     3.0735      0.473160
     3.0740      0.476400
     3.0745      0.479610
     3.0750      0.482810
     3.0755      0.486510
     3.0760      0.490300
     3.0765      0.494570
     3.0770      0.498730
     3.0775      0.502540
     3.0780      0.506280
     3.0785      0.509920
     3.0790      0.513800
     3.0795      0.517840
     3.0800      0.521670
     3.0805      0.525440
     3.0810      0.528820
     3.0815      0.532200
     3.0820      0.535850
     3.0825      0.539460
     3.0830      0.543000
     3.0835      0.546450
     3.0840      0.549770
     3.0845      0.553200
     3.0850      0.556700
     3.0855      0.559610
     3.0860      0.562330
     3.0865      0.564340
     3.0870      0.566310
     3.0875      0.568440
     3.0880      0.570430
     3.0885      0.571990
     3.0890      0.573280
     3.0895      0.574180
     3.0900      0.575130
     3.0905      0.576120
     3.0910      0.576910
     3.0915      0.577630
     3.0920      0.577960
     3.0925      0.578210
     3.0930      0.577740
     3.0935      0.577070
     3.0940      0.575590
     3.0945      0.573940
     3.0950      0.572010
     3.0955      0.569890
     3.0960      0.567600
     3.0965      0.565020
     3.0970      0.562270
     3.0975      0.559030
     3.0980      0.555670
     3.0985      0.551750
     3.0990      0.547760
     3.0995      0.543350
     3.1000      0.538760
     3.1005      0.533630
     3.1010      0.528510
     3.1015      0.523380
     3.1020      0.518240
     3.1025      0.513090
     3.1030      0.507250
     3.1035      0.501100
     3.1040      0.494920
     3.1045      0.488730
     3.1050      0.482910
     3.1055      0.477000
     3.1060      0.470330
     3.1065      0.463550
     3.1070      0.456410
     3.1075      0.449420
     3.1080      0.442650
     3.1085      0.435740
     3.1090      0.428700
     3.1095      0.421440
     3.1100      0.414080
     3.1105      0.407280
     3.1110      0.400620
     3.1115      0.394190
     3.1120      0.387760
     3.1125      0.381070
     3.1130      0.374480
     3.1135      0.368380
     3.1140      0.362320
     3.1145      0.356350
     3.1150      0.350060
     3.1155      0.343400
     3.1160      0.336830
     3.1165      0.330310
     3.1170      0.324500
     3.1175      0.318990
     3.1180      0.313910
     3.1185      0.308930
     3.1190      0.303400
     3.1195      0.297850
     3.1200      0.292230
     3.1205      0.286760
     3.1210      0.281830
     3.1215      0.276980
     3.1220      0.272270
     3.1225      0.267620
     3.1230      0.263060
     3.1235      0.258650
     3.1240      0.254360
     3.1245      0.250120
     3.1250      0.245900
     3.1255      0.241800
     3.1260      0.237710
     3.1265      0.233790
     3.1270      0.229870
     3.1275      0.225800
     3.1280      0.221780
     3.1285      0.218040
     3.1290      0.214550
     3.1295      0.211760
     3.1300      0.208970
     3.1305      0.206170
     3.1310      0.203200
     3.1315      0.200040
     3.1320      0.197090
     3.1325      0.194290
     3.1330      0.191640
     3.1335      0.189070
     3.1340      0.186470
     3.1345      0.183850
     3.1350      0.181140
     3.1355      0.178420
     3.1360      0.175940
     3.1365      0.173520
     3.1370      0.171510
     3.1375      0.169490
     3.1380      0.167400
     3.1385      0.165360
     3.1390      0.163440
     3.1395      0.161690
     3.1400      0.160190
     3.1405      0.158470
     3.1410      0.156560
     3.1415      0.154510
     3.1420      0.152370
     3.1425      0.150490
     3.1430      0.148720
     3.1435      0.147120
     3.1440      0.145560
     3.1445      0.144440
     3.1450      0.143360
     3.1455      0.142590
     3.1460      0.141780
     3.1465      0.140550
     3.1470      0.139310
     3.1475      0.138020
     3.1480      0.136820
     3.1485      0.135890
     3.1490      0.134910
     3.1495      0.133820
     3.1500      0.132620
     3.1505      0.131270
     3.1510      0.130100
     3.1515      0.129090
     3.1520      0.128210
     3.1525      0.127400
     3.1530      0.126330
     3.1535      0.125140
     3.1540      0.123900
     3.1545      0.122650
     3.1550      0.121960
     3.1555      0.121360
     3.1560      0.121280
     3.1565      0.121230
     3.1570      0.120740
     3.1575      0.120210
     3.1580      0.119350
     3.1585      0.118590
     3.1590      0.118400
     3.1595      0.118220
     3.1600      0.118120
     3.1605      0.117830
     3.1610      0.117150
     3.1615      0.116530
     3.1620      0.116030
     3.1625      0.115700
     3.1630      0.115580
     3.1635      0.115460
     3.1640      0.115330
     3.1645      0.115200
     3.1650      0.115070
     3.1655      0.114940
     3.1660      0.114820
     3.1665      0.114500
     3.1670      0.114110
     3.1675      0.113580
     3.1680      0.113010
     3.1685      0.113030
     3.1690      0.113130
     3.1695      0.113480
     3.1700      0.113840
     3.1705      0.113730
     3.1710      0.113610
     3.1715      0.113440
     3.1720      0.113250
     3.1725      0.112850
     3.1730      0.112550
     3.1735      0.112710
     3.1740      0.113130
     3.1745      0.114390
     3.1750      0.115400
     3.1755      0.115770
     3.1760      0.115960
     3.1765      0.115820
     3.1770      0.115960
     3.1775      0.116540
     3.1780      0.116980
     3.1785      0.117270
     3.1790      0.117410
     3.1795      0.117410
     3.1800      0.117520
     3.1805      0.117700
     3.1810      0.117980
     3.1815      0.118330
     3.1820      0.118910
     3.1825      0.119620
     3.1830      0.120390
     3.1835      0.121200
     3.1840      0.121890
     3.1845      0.122550
     3.1850      0.123210
     3.1855      0.123880
     3.1860      0.124810
     3.1865      0.125790
     3.1870      0.126970
     3.1875      0.128180
     3.1880      0.129030
     3.1885      0.129850
     3.1890      0.130540
     3.1895      0.131220
     3.1900      0.132640
     3.1905      0.134070
     3.1910      0.135240
     3.1915      0.136350
     3.1920      0.136540
     3.1925      0.136790
     3.1930      0.137580
     3.1935      0.138460
     3.1940      0.139980
     3.1945      0.141490
     3.1950      0.142940
     3.1955      0.144420
     3.1960      0.146010
     3.1965      0.147600
     3.1970      0.149210
     3.1975      0.150860
     3.1980      0.152640
     3.1985      0.154490
     3.1990      0.156510
     3.1995      0.158480
     3.2000      0.160330
     3.2005      0.162180
     3.2010      0.164030
     3.2015      0.165940
     3.2020      0.167940
     3.2025      0.169880
     3.2030      0.171700
     3.2035      0.173550
     3.2040      0.175430
     3.2045      0.177550
     3.2050      0.180000
     3.2055      0.182520
     3.2060      0.185130
     3.2065      0.187780
     3.2070      0.190460
     3.2075      0.193230
     3.2080      0.196120
     3.2085      0.198900
     3.2090      0.201580
     3.2095      0.204360
     3.2100      0.207240
     3.2105      0.210380
     3.2110      0.213760
     3.2115      0.217090
     3.2120      0.220390
     3.2125      0.223670
     3.2130      0.226950
     3.2135      0.230420
     3.2140      0.234050
     3.2145      0.237860
     3.2150      0.241800
     3.2155      0.245930
     3.2160      0.250190
     3.2165      0.254600
     3.2170      0.259120
     3.2175      0.263720
     3.2180      0.268390
     3.2185      0.273260
     3.2190      0.278290
     3.2195      0.283300
     3.2200      0.288310
     3.2205      0.293210
     3.2210      0.298040
     3.2215      0.303090
     3.2220      0.308310
     3.2225      0.313620
     3.2230      0.319020
     3.2235      0.324540
     3.2240      0.330150
     3.2245      0.336290
     3.2250      0.342820
     3.2255      0.349600
     3.2260      0.356570
     3.2265      0.363280
     3.2270      0.369790
     3.2275      0.376310
     3.2280      0.382860
     3.2285      0.389750
     3.2290      0.396950
     3.2295      0.404010
     3.2300      0.410960
     3.2305      0.417770
     3.2310      0.424470
     3.2315      0.431340
     3.2320      0.438400
     3.2325      0.445320
     3.2330      0.452100
     3.2335      0.458790
     3.2340      0.465370
     3.2345      0.472180
     3.2350      0.479270
     3.2355      0.486350
     3.2360      0.493410
     3.2365      0.500130
     3.2370      0.506380
     3.2375      0.512400
     3.2380      0.518070
     3.2385      0.523640
     3.2390      0.529030
     3.2395      0.534230
     3.2400      0.539050
     3.2405      0.543620
     3.2410      0.547650
     3.2415      0.551550
     3.2420      0.555150
     3.2425      0.558620
     3.2430      0.561760
     3.2435      0.564630
     3.2440      0.566640
     3.2445      0.568400
     3.2450      0.569240
     3.2455      0.569960
     3.2460      0.570090
     3.2465      0.570140
     3.2470      0.569800
     3.2475      0.569360
     3.2480      0.568260
     3.2485      0.567050
     3.2490      0.564800
     3.2495      0.562520
     3.2500      0.559760
     3.2505      0.557000
     3.2510      0.553770
     3.2515      0.550550
     3.2520      0.546480
     3.2525      0.542390
     3.2530      0.537880
     3.2535      0.533350
     3.2540      0.528340
     3.2545      0.523270
     3.2550      0.517960
     3.2555      0.512610
     3.2560      0.507420
     3.2565      0.502260
     3.2570      0.496720
     3.2575      0.491050
     3.2580      0.485020
     3.2585      0.478850
     3.2590      0.472730
     3.2595      0.466640
     3.2600      0.460320
     3.2605      0.453860
     3.2610      0.447490
     3.2615      0.441190
     3.2620      0.435280
     3.2625      0.429760
     3.2630      0.424120
     3.2635      0.418330
     3.2640      0.412510
     3.2645      0.406640
     3.2650      0.401020
     3.2655      0.395870
     3.2660      0.390670
     3.2665      0.385360
     3.2670      0.379990
     3.2675      0.374440
     3.2680      0.368950
     3.2685      0.363760
     3.2690      0.358580
     3.2695      0.353460
     3.2700      0.348360
     3.2705      0.343580
     3.2710      0.338800
     3.2715      0.334490
     3.2720      0.330190
     3.2725      0.325800
     3.2730      0.321410
     3.2735      0.317260
     3.2740      0.313140
     3.2745      0.309380
     3.2750      0.305710
     3.2755      0.301950
     3.2760      0.298160
     3.2765      0.294390
     3.2770      0.290630
     3.2775      0.287150
     3.2780      0.283860
     3.2785      0.280740
     3.2790      0.277780
     3.2795      0.274890
     3.2800      0.272110
     3.2805      0.269350
     3.2810      0.266660
     3.2815      0.263930
     3.2820      0.261100
     3.2825      0.258280
     3.2830      0.255470
     3.2835      0.252710
     3.2840      0.250320
     3.2845      0.247950
     3.2850      0.245940
     3.2855      0.243930
     3.2860      0.241800
     3.2865      0.239660
     3.2870      0.237300
     3.2875      0.234910
     3.2880      0.232630
     3.2885      0.230370
     3.2890      0.228310
     3.2895      0.226310
     3.2900      0.224550
     3.2905      0.222920
     3.2910      0.221420
     3.2915      0.220040
     3.2920      0.218650
     3.2925      0.217250
     3.2930      0.215900
     3.2935      0.214610
     3.2940      0.213370
     3.2945      0.212270
     3.2950      0.211200
     3.2955      0.210310
     3.2960      0.209440
     3.2965      0.208750
     3.2970      0.208060
     3.2975      0.207240
     3.2980      0.206410
     3.2985      0.205350
     3.2990      0.204270
     3.2995      0.203210
     3.3000      0.202160
     3.3005      0.201160
     3.3010      0.200190
     3.3015      0.199290
     3.3020      0.198440
     3.3025      0.197810
     3.3030      0.197410
     3.3035      0.197080
     3.3040      0.196840
     3.3045      0.196570
     3.3050      0.196180
     3.3055      0.195840
     3.3060      0.195700
     3.3065      0.195560
     3.3070      0.195370
     3.3075      0.195170
     3.3080      0.194590
     3.3085      0.193990
     3.3090      0.193640
     3.3095      0.193320
     3.3100      0.193480
     3.3105      0.193800
     3.3110      0.194250
     3.3115      0.194760
     3.3120      0.195170
     3.3125      0.195480
     3.3130      0.195610
     3.3135      0.195480
     3.3140      0.195330
     3.3145      0.195170
     3.3150      0.195120
     3.3155      0.195720
     3.3160      0.196330
     3.3165      0.197270
     3.3170      0.198200
     3.3175      0.198720
     3.3180      0.199200
     3.3185      0.199550
     3.3190      0.199860
     3.3195      0.200400
     3.3200      0.201040
     3.3205      0.201850
     3.3210      0.202790
     3.3215      0.203660
     3.3220      0.204420
     3.3225      0.205140
     3.3230      0.205770
     3.3235      0.206460
     3.3240      0.207510
     3.3245      0.208550
     3.3250      0.209740
     3.3255      0.210940
     3.3260      0.212130
     3.3265      0.213330
     3.3270      0.214700
     3.3275      0.216120
     3.3280      0.217400
     3.3285      0.218600
     3.3290      0.219770
     3.3295      0.220890
     3.3300      0.222240
     3.3305      0.224040
     3.3310      0.225890
     3.3315      0.227900
     3.3320      0.229890
     3.3325      0.231610
     3.3330      0.233330
     3.3335      0.235340
     3.3340      0.237370
     3.3345      0.239570
     3.3350      0.241820
     3.3355      0.243890
     3.3360      0.245850
     3.3365      0.247850
     3.3370      0.249870
     3.3375      0.251970
     3.3380      0.254250
     3.3385      0.256550
     3.3390      0.258950
     3.3395      0.261350
     3.3400      0.263910
     3.3405      0.266460
     3.3410      0.269120
     3.3415      0.271790
     3.3420      0.274570
     3.3425      0.277390
     3.3430      0.280390
     3.3435      0.283520
     3.3440      0.286720
     3.3445      0.290030
     3.3450      0.293350
     3.3455      0.296690
     3.3460      0.300060
     3.3465      0.303720
     3.3470      0.307380
     3.3475      0.311220
     3.3480      0.315070
     3.3485      0.318660
     3.3490      0.322190
     3.3495      0.325790
     3.3500      0.329440
     3.3505      0.333280
     3.3510      0.337340
     3.3515      0.341470
     3.3520      0.345760
     3.3525      0.350100
     3.3530      0.354770
     3.3535      0.359440
     3.3540      0.364190
     3.3545      0.368930
     3.3550      0.373750
     3.3555      0.378600
     3.3560      0.383750
     3.3565      0.389090
     3.3570      0.394360
     3.3575      0.399520
     3.3580      0.404600
     3.3585      0.409480
     3.3590      0.414380
     3.3595      0.419550
     3.3600      0.424720
     3.3605      0.430060
     3.3610      0.435420
     3.3615      0.440990
     3.3620      0.446640
     3.3625      0.452340
     3.3630      0.458090
     3.3635      0.463820
     3.3640      0.469530
     3.3645      0.475340
     3.3650      0.481570
     3.3655      0.487790
     3.3660      0.493930
     3.3665      0.500070
     3.3670      0.505750
     3.3675      0.511330
     3.3680      0.517090
     3.3685      0.522960
     3.3690      0.528910
     3.3695      0.534960
     3.3700      0.540930
     3.3705      0.546670
     3.3710      0.552390
     3.3715      0.557930
     3.3720      0.563470
     3.3725      0.568810
     3.3730      0.574130
     3.3735      0.579310
     3.3740      0.584430
     3.3745      0.589440
     3.3750      0.594330
     3.3755      0.599170
     3.3760      0.603890
     3.3765      0.608640
     3.3770      0.613680
     3.3775      0.618730
     3.3780      0.623650
     3.3785      0.628560
     3.3790      0.633040
     3.3795      0.637340
     3.3800      0.641460
     3.3805      0.645390
     3.3810      0.649120
     3.3815      0.652350
     3.3820      0.655500
     3.3825      0.657840
     3.3830      0.660170
     3.3835      0.662190
     3.3840      0.664170
     3.3845      0.666220
     3.3850      0.668310
     3.3855      0.670380
     3.3860      0.672430
     3.3865      0.674300
     3.3870      0.675650
     3.3875      0.676950
     3.3880      0.677040
     3.3885      0.677120
     3.3890      0.676890
     3.3895      0.676590
     3.3900      0.676700
     3.3905      0.677060
     3.3910      0.677130
     3.3915      0.676750
     3.3920      0.676240
     3.3925      0.675040
     3.3930      0.673840
     3.3935      0.673130
     3.3940      0.672440
     3.3945      0.671190
     3.3950      0.669730
     3.3955      0.667910
     3.3960      0.665730
     3.3965      0.663720
     3.3970      0.662100
     3.3975      0.660470
     3.3980      0.658760
     3.3985      0.657050
     3.3990      0.655040
     3.3995      0.652960
     3.4000      0.650760
     3.4005      0.648490
     3.4010      0.645990
     3.4015      0.643110
     3.4020      0.640170
     3.4025      0.636880
     3.4030      0.633590
     3.4035      0.630930
     3.4040      0.628320
     3.4045      0.626010
     3.4050      0.623830
     3.4055      0.621420
     3.4060      0.618700
     3.4065      0.615930
     3.4070      0.612980
     3.4075      0.610020
     3.4080      0.607110
     3.4085      0.604200
     3.4090      0.601630
     3.4095      0.599190
     3.4100      0.596860
     3.4105      0.594640
     3.4110      0.592290
     3.4115      0.589490
     3.4120      0.586700
     3.4125      0.584060
     3.4130      0.581430
     3.4135      0.578990
     3.4140      0.576630
     3.4145      0.574160
     3.4150      0.571590
     3.4155      0.569030
     3.4160      0.566500
     3.4165      0.563980
     3.4170      0.561860
     3.4175      0.559750
     3.4180      0.557950
     3.4185      0.556270
     3.4190      0.554380
     3.4195      0.552280
     3.4200      0.550210
     3.4205      0.548230
     3.4210      0.546250
     3.4215      0.545080
     3.4220      0.543920
     3.4225      0.542580
     3.4230      0.541170
     3.4235      0.539760
     3.4240      0.538340
     3.4245      0.536980
     3.4250      0.535840
     3.4255      0.534690
     3.4260      0.533300
     3.4265      0.531890
     3.4270      0.530770
     3.4275      0.529800
     3.4280      0.529050
     3.4285      0.528620
     3.4290      0.528180
     3.4295      0.527670
     3.4300      0.527160
     3.4305      0.526450
     3.4310      0.525710
     3.4315      0.524960
     3.4320      0.524190
     3.4325      0.523590
     3.4330      0.523310
     3.4335      0.523050
     3.4340      0.523040
     3.4345      0.523040
     3.4350      0.523040
     3.4355      0.523040
     3.4360      0.523130
     3.4365      0.523310
     3.4370      0.523550
     3.4375      0.523990
     3.4380      0.524430
     3.4385      0.525270
     3.4390      0.526130
     3.4395      0.526860
     3.4400      0.527540
     3.4405      0.528110
     3.4410      0.528520
     3.4415      0.529000
     3.4420      0.530170
     3.4425      0.531330
     3.4430      0.532800
     3.4435      0.534340
     3.4440      0.535610
     3.4445      0.536670
     3.4450      0.537690
     3.4455      0.538600
     3.4460      0.539520
     3.4465      0.540870
     3.4470      0.542250
     3.4475      0.543940
     3.4480      0.545780
     3.4485      0.547640
     3.4490      0.549500
     3.4495      0.551360
     3.4500      0.553140
     3.4505      0.554910
     3.4510      0.556790
     3.4515      0.558700
     3.4520      0.560730
     3.4525      0.562890
     3.4530      0.565060
     3.4535      0.567320
     3.4540      0.569570
     3.4545      0.571630
     3.4550      0.573660
     3.4555      0.575650
     3.4560      0.577590
     3.4565      0.579660
     3.4570      0.582040
     3.4575      0.584410
     3.4580      0.587240
     3.4585      0.590070
     3.4590      0.592830
     3.4595      0.595560
     3.4600      0.598160
     3.4605      0.600530
     3.4610      0.602910
     3.4615      0.605440
     3.4620      0.607970
     3.4625      0.610590
     3.4630      0.613240
     3.4635      0.615840
     3.4640      0.618370
     3.4645      0.620960
     3.4650      0.623980
     3.4655      0.627000
     3.4660      0.629860
     3.4665      0.632670
     3.4670      0.635170
     3.4675      0.637350
     3.4680      0.639640
     3.4685      0.642560
     3.4690      0.645470
     3.4695      0.648460
     3.4700      0.651460
     3.4705      0.654150
     3.4710      0.656550
     3.4715      0.658940
     3.4720      0.661290
     3.4725      0.663650
     3.4730      0.665790
     3.4735      0.667900
     3.4740      0.670140
     3.4745      0.672480
     3.4750      0.674770
     3.4755      0.676850
     3.4760      0.678930
     3.4765      0.680680
     3.4770      0.682380
     3.4775      0.684370
     3.4780      0.686570
     3.4785      0.688650
     3.4790      0.690260
     3.4795      0.691880
     3.4800      0.693230
     3.4805      0.694550
     3.4810      0.696000
     3.4815      0.697560
     3.4820      0.698870
     3.4825      0.699250
     3.4830      0.699630
     3.4835      0.699500
     3.4840      0.699280
     3.4845      0.699450
     3.4850      0.699940
     3.4855      0.700440
     3.4860      0.700970
     3.4865      0.701500
     3.4870      0.701800
     3.4875      0.702040
     3.4880      0.702150
     3.4885      0.702130
     3.4890      0.701940
     3.4895      0.700890
     3.4900      0.699850
     3.4905      0.698310
     3.4910      0.696650
     3.4915      0.695040
     3.4920      0.693480
     3.4925      0.691970
     3.4930      0.690930
     3.4935      0.689880
     3.4940      0.688710
     3.4945      0.687510
     3.4950      0.685530
     3.4955      0.682360
     3.4960      0.679200
     3.4965      0.676170
     3.4970      0.673150
     3.4975      0.671290
     3.4980      0.669970
     3.4985      0.668320
     3.4990      0.665990
     3.4995      0.663660
     3.5000      0.660040
     3.5005      0.656370
     3.5010      0.652700
     3.5015      0.649020
     3.5020      0.645500
     3.5025      0.642460
     3.5030      0.639420
     3.5035      0.636850
     3.5040      0.634350
     3.5045      0.631570
     3.5050      0.628520
     3.5055      0.625390
     3.5060      0.621690
     3.5065      0.617980
     3.5070      0.614620
     3.5075      0.611370
     3.5080      0.608390
     3.5085      0.605870
     3.5090      0.603340
     3.5095      0.599960
     3.5100      0.596590
     3.5105      0.592810
     3.5110      0.588800
     3.5115      0.584980
     3.5120      0.581730
     3.5125      0.578470
     3.5130      0.575250
     3.5135      0.572040
     3.5140      0.568660
     3.5145      0.565100
     3.5150      0.561470
     3.5155      0.557220
     3.5160      0.552970
     3.5165      0.548780
     3.5170      0.544600
     3.5175      0.540980
     3.5180      0.538400
     3.5185      0.535820
     3.5190      0.533460
     3.5195      0.531110
     3.5200      0.528460
     3.5205      0.525580
     3.5210      0.522770
     3.5215      0.520260
     3.5220      0.517760
     3.5225      0.515190
     3.5230      0.512610
     3.5235      0.509460
     3.5240      0.505450
     3.5245      0.501440
     3.5250      0.497290
     3.5255      0.493150
     3.5260      0.490370
     3.5265      0.488490
     3.5270      0.486710
     3.5275      0.485260
     3.5280      0.483820
     3.5285      0.481670
     3.5290      0.479340
     3.5295      0.476730
     3.5300      0.473710
     3.5305      0.470690
     3.5310      0.466900
     3.5315      0.463110
     3.5320      0.460600
     3.5325      0.458960
     3.5330      0.457580
     3.5335      0.457360
     3.5340      0.457130
     3.5345      0.455600
     3.5350      0.453700
     3.5355      0.451780
     3.5360      0.449810
     3.5365      0.447850
     3.5370      0.446480
     3.5375      0.445140
     3.5380      0.443680
     3.5385      0.442140
     3.5390      0.440660
     3.5395      0.439550
     3.5400      0.438440
     3.5405      0.437610
     3.5410      0.436890
     3.5415      0.435970
     3.5420      0.434600
     3.5425      0.433220
     3.5430      0.432020
     3.5435      0.430840
     3.5440      0.430040
     3.5445      0.429690
     3.5450      0.429320
     3.5455      0.428400
     3.5460      0.427480
     3.5465      0.427030
     3.5470      0.426880
     3.5475      0.426830
     3.5480      0.427220
     3.5485      0.427610
     3.5490      0.426720
     3.5495      0.425410
     3.5500      0.424380
     3.5505      0.423930
     3.5510      0.423490
     3.5515      0.424030
     3.5520      0.424690
     3.5525      0.424660
     3.5530      0.423810
     3.5535      0.422970
     3.5540      0.422610
     3.5545      0.422250
     3.5550      0.423060
     3.5555      0.424700
     3.5560      0.426310
     3.5565      0.427670
     3.5570      0.429030
     3.5575      0.429310
     3.5580      0.429150
     3.5585      0.428830
     3.5590      0.428070
     3.5595      0.427310
     3.5600      0.427400
     3.5605      0.427670
     3.5610      0.428760
     3.5615      0.431180
     3.5620      0.433600
     3.5625      0.436230
     3.5630      0.438880
     3.5635      0.440890
     3.5640      0.442220
     3.5645      0.443540
     3.5650      0.444500
     3.5655      0.445470
     3.5660      0.446170
     3.5665      0.446680
     3.5670      0.447270
     3.5675      0.448430
     3.5680      0.449590
     3.5685      0.451770
     3.5690      0.454440
     3.5695      0.457020
     3.5700      0.459250
     3.5705      0.461480
     3.5710      0.463710
     3.5715      0.465930
