# author : Oliver Czoske
# source : Ester Aranzana
# date_created : 2017-11-20
# date_modified: 2025-12-16
# status: Measured at 80 K
# wavelength_unit : um
# changes :
# - 2022-03-17 (KL) Updated to match Ric Davies' email
# - 2023-06-06 (RD) Modified profiles after discussion with Schott
# - 2025-06-16 (FH) Updated filter curve based on Ric Davies' email.
# - 2025-12-16 (OC) Replaced with measured values
#
 wavelength  transmission
     0.4990      0.003200
     0.4995      0.003200
     0.5000      0.007190
     0.5005      0.000000
     0.5010      0.008250
     0.5015      0.011850
     0.5020      0.011470
     0.5025      0.000180
     0.5030      0.000000
     0.5035      0.000020
     0.5040      0.009710
     0.5045      0.001040
     0.5050      0.000530
     0.5055      0.003340
     0.5060      0.000000
     0.5065      0.000000
     0.5070      0.000000
     0.5075      0.014610
     0.5080      0.017960
     0.5085      0.000000
     0.5090      0.000000
     0.5095      0.001030
     0.5100      0.007410
     0.5105      0.000000
     0.5110      0.008180
     0.5115      0.000000
     0.5120      0.000000
     0.5125      0.000000
     0.5130      0.004900
     0.5135      0.008910
     0.5140      0.008350
     0.5145      0.000400
     0.5150      0.000150
     0.5155      0.003520
     0.5160      0.000120
     0.5165      0.001130
     0.5170      0.003020
     0.5175      0.000000
     0.5180      0.002390
     0.5185      0.014280
     0.5190      0.000000
     0.5195      0.001350
     0.5200      0.002430
     0.5205      0.003280
     0.5210      0.001510
     0.5215      0.014530
     0.5220      0.023540
     0.5225      0.000000
     0.5230      0.000000
     0.5235      0.000000
     0.5240      0.000000
     0.5245      0.002290
     0.5250      0.000000
     0.5255      0.003610
     0.5260      0.003760
     0.5265      0.000000
     0.5270      0.000000
     0.5275      0.000000
     0.5280      0.011750
     0.5285      0.009250
     0.5290      0.001330
     0.5295      0.000000
     0.5300      0.008360
     0.5305      0.000000
     0.5310      0.002940
     0.5315      0.001100
     0.5320      0.006890
     0.5325      0.004010
     0.5330      0.000000
     0.5335      0.001400
     0.5340      0.003180
     0.5345      0.001240
     0.5350      0.000000
     0.5355      0.001350
     0.5360      0.000000
     0.5365      0.000230
     0.5370      0.002830
     0.5375      0.001650
     0.5380      0.001930
     0.5385      0.000100
     0.5390      0.000000
     0.5395      0.002510
     0.5400      0.000120
     0.5405      0.006340
     0.5410      0.000000
     0.5415      0.003570
     0.5420      0.001050
     0.5425      0.000120
     0.5430      0.000100
     0.5435      0.000000
     0.5440      0.003790
     0.5445      0.000270
     0.5450      0.009110
     0.5455      0.001340
     0.5460      0.000000
     0.5465      0.002780
     0.5470      0.000500
     0.5475      0.001620
     0.5480      0.003730
     0.5485      0.000000
     0.5490      0.000000
     0.5495      0.004170
     0.5500      0.000170
     0.5505      0.000000
     0.5510      0.001190
     0.5515      0.001190
     0.5520      0.000000
     0.5525      0.003150
     0.5530      0.000010
     0.5535      0.002830
     0.5540      0.001620
     0.5545      0.001790
     0.5550      0.000000
     0.5555      0.000040
     0.5560      0.000770
     0.5565      0.000000
     0.5570      0.001130
     0.5575      0.000000
     0.5580      0.003710
     0.5585      0.002110
     0.5590      0.000100
     0.5595      0.000480
     0.5600      0.001970
     0.5605      0.001690
     0.5610      0.000000
     0.5615      0.000350
     0.5620      0.000000
     0.5625      0.000350
     0.5630      0.001270
     0.5635      0.001510
     0.5640      0.000000
     0.5645      0.000000
     0.5650      0.000000
     0.5655      0.001330
     0.5660      0.000000
     0.5665      0.001420
     0.5670      0.002690
     0.5675      0.002290
     0.5680      0.000000
     0.5685      0.000000
     0.5690      0.001090
     0.5695      0.000000
     0.5700      0.000040
     0.5705      0.000000
     0.5710      0.000280
     0.5715      0.000000
     0.5720      0.000000
     0.5725      0.000850
     0.5730      0.000240
     0.5735      0.000470
     0.5740      0.000000
     0.5745      0.000030
     0.5750      0.002040
     0.5755      0.000000
     0.5760      0.000880
     0.5765      0.000450
     0.5770      0.000000
     0.5775      0.000000
     0.5780      0.000000
     0.5785      0.000000
     0.5790      0.000550
     0.5795      0.000790
     0.5800      0.000860
     0.5805      0.000790
     0.5810      0.000000
     0.5815      0.000390
     0.5820      0.000980
     0.5825      0.000230
     0.5830      0.000970
     0.5835      0.000190
     0.5840      0.000900
     0.5845      0.001390
     0.5850      0.000280
     0.5855      0.001840
     0.5860      0.000000
     0.5865      0.001250
     0.5870      0.000600
     0.5875      0.001180
     0.5880      0.000030
     0.5885      0.000370
     0.5890      0.000000
     0.5895      0.000000
     0.5900      0.001000
     0.5905      0.001160
     0.5910      0.000420
     0.5915      0.000280
     0.5920      0.000580
     0.5925      0.000710
     0.5930      0.000020
     0.5935      0.000000
     0.5940      0.000010
     0.5945      0.000000
     0.5950      0.000580
     0.5955      0.000040
     0.5960      0.001120
     0.5965      0.000000
     0.5970      0.000430
     0.5975      0.000700
     0.5980      0.000000
     0.5985      0.000000
     0.5990      0.000000
     0.5995      0.001010
     0.6000      0.001040
     0.6005      0.000030
     0.6010      0.000000
     0.6015      0.000000
     0.6020      0.000570
     0.6025      0.000420
     0.6030      0.000430
     0.6035      0.001420
     0.6040      0.000000
     0.6045      0.000010
     0.6050      0.000560
     0.6055      0.000020
     0.6060      0.000050
     0.6065      0.000210
     0.6070      0.000050
     0.6075      0.000360
     0.6080      0.000050
     0.6085      0.000000
     0.6090      0.000100
     0.6095      0.000220
     0.6100      0.000270
     0.6105      0.000000
     0.6110      0.000010
     0.6115      0.000410
     0.6120      0.000000
     0.6125      0.000490
     0.6130      0.000050
     0.6135      0.000290
     0.6140      0.000000
     0.6145      0.000010
     0.6150      0.000330
     0.6155      0.000220
     0.6160      0.000190
     0.6165      0.000460
     0.6170      0.000190
     0.6175      0.000570
     0.6180      0.000000
     0.6185      0.000000
     0.6190      0.000690
     0.6195      0.000000
     0.6200      0.000010
     0.6205      0.001060
     0.6210      0.000000
     0.6215      0.000000
     0.6220      0.000380
     0.6225      0.000670
     0.6230      0.000230
     0.6235      0.000370
     0.6240      0.000000
     0.6245      0.000250
     0.6250      0.000210
     0.6255      0.000010
     0.6260      0.000010
     0.6265      0.000570
     0.6270      0.000000
     0.6275      0.000520
     0.6280      0.000060
     0.6285      0.000590
     0.6290      0.000000
     0.6295      0.000000
     0.6300      0.000300
     0.6305      0.000620
     0.6310      0.000000
     0.6315      0.000270
     0.6320      0.000180
     0.6325      0.002480
     0.6330      0.029500
     0.6335      0.000780
     0.6340      0.001070
     0.6345      0.000080
     0.6350      0.001190
     0.6355      0.000030
     0.6360      0.000000
     0.6365      0.001040
     0.6370      0.000680
     0.6375      0.000000
     0.6380      0.001700
     0.6385      0.000400
     0.6390      0.000000
     0.6395      0.001080
     0.6400      0.000200
     0.6405      0.000000
     0.6410      0.000520
     0.6415      0.000190
     0.6420      0.000000
     0.6425      0.000000
     0.6430      0.000180
     0.6435      0.000320
     0.6440      0.000110
     0.6445      0.000130
     0.6450      0.000000
     0.6455      0.000150
     0.6460      0.000280
     0.6465      0.000000
     0.6470      0.000270
     0.6475      0.000250
     0.6480      0.000190
     0.6485      0.000340
     0.6490      0.000150
     0.6495      0.000170
     0.6500      0.000110
     0.6505      0.000000
     0.6510      0.000310
     0.6515      0.000000
     0.6520      0.000000
     0.6525      0.000200
     0.6530      0.000020
     0.6535      0.000070
     0.6540      0.000140
     0.6545      0.000000
     0.6550      0.000000
     0.6555      0.000080
     0.6560      0.000020
     0.6565      0.000280
     0.6570      0.000440
     0.6575      0.000000
     0.6580      0.000260
     0.6585      0.000210
     0.6590      0.000000
     0.6595      0.000100
     0.6600      0.000030
     0.6605      0.000040
     0.6610      0.000000
     0.6615      0.000330
     0.6620      0.000000
     0.6625      0.000120
     0.6630      0.000200
     0.6635      0.000010
     0.6640      0.000080
     0.6645      0.000160
     0.6650      0.000000
     0.6655      0.000070
     0.6660      0.000490
     0.6665      0.000080
     0.6670      0.000000
     0.6675      0.000000
     0.6680      0.000000
     0.6685      0.000010
     0.6690      0.000030
     0.6695      0.000000
     0.6700      0.000000
     0.6705      0.000120
     0.6710      0.000180
     0.6715      0.000020
     0.6720      0.000070
     0.6725      0.000080
     0.6730      0.000010
     0.6735      0.000040
     0.6740      0.000080
     0.6745      0.000360
     0.6750      0.000060
     0.6755      0.000280
     0.6760      0.000100
     0.6765      0.000000
     0.6770      0.000000
     0.6775      0.000040
     0.6780      0.000150
     0.6785      0.000160
     0.6790      0.000000
     0.6795      0.000000
     0.6800      0.000020
     0.6805      0.000100
     0.6810      0.000170
     0.6815      0.000070
     0.6820      0.000000
     0.6825      0.000020
     0.6830      0.000160
     0.6835      0.000170
     0.6840      0.000000
     0.6845      0.000070
     0.6850      0.000150
     0.6855      0.000030
     0.6860      0.000120
     0.6865      0.000000
     0.6870      0.000320
     0.6875      0.000060
     0.6880      0.000000
     0.6885      0.000000
     0.6890      0.000240
     0.6895      0.000150
     0.6900      0.000090
     0.6905      0.000000
     0.6910      0.000010
     0.6915      0.000000
     0.6920      0.000170
     0.6925      0.000170
     0.6930      0.000000
     0.6935      0.000090
     0.6940      0.000000
     0.6945      0.000130
     0.6950      0.000000
     0.6955      0.000030
     0.6960      0.000130
     0.6965      0.000270
     0.6970      0.000220
     0.6975      0.000000
     0.6980      0.000020
     0.6985      0.000020
     0.6990      0.000160
     0.6995      0.000000
     0.7000      0.000360
     0.7005      0.000250
     0.7010      0.000000
     0.7015      0.000030
     0.7020      0.000060
     0.7025      0.000000
     0.7030      0.000000
     0.7035      0.000110
     0.7040      0.000000
     0.7045      0.000070
     0.7050      0.000180
     0.7055      0.000040
     0.7060      0.000360
     0.7065      0.000030
     0.7070      0.000000
     0.7075      0.000070
     0.7080      0.000000
     0.7085      0.000040
     0.7090      0.000040
     0.7095      0.000020
     0.7100      0.000000
     0.7105      0.000100
     0.7110      0.000070
     0.7115      0.000030
     0.7120      0.000000
     0.7125      0.000140
     0.7130      0.000000
     0.7135      0.000060
     0.7140      0.000030
     0.7145      0.000100
     0.7150      0.000010
     0.7155      0.000080
     0.7160      0.000150
     0.7165      0.000070
     0.7170      0.000150
     0.7175      0.000000
     0.7180      0.000000
     0.7185      0.000000
     0.7190      0.000000
     0.7195      0.000030
     0.7200      0.000000
     0.7205      0.000030
     0.7210      0.000170
     0.7215      0.000080
     0.7220      0.000000
     0.7225      0.000280
     0.7230      0.000260
     0.7235      0.000010
     0.7240      0.000000
     0.7245      0.000280
     0.7250      0.000280
     0.7255      0.000000
     0.7260      0.000050
     0.7265      0.000030
     0.7270      0.000000
     0.7275      0.000000
     0.7280      0.000100
     0.7285      0.000060
     0.7290      0.000060
     0.7295      0.000000
     0.7300      0.000050
     0.7305      0.000140
     0.7310      0.000020
     0.7315      0.000000
     0.7320      0.000040
     0.7325      0.000210
     0.7330      0.000180
     0.7335      0.000080
     0.7340      0.000050
     0.7345      0.000070
     0.7350      0.000170
     0.7355      0.000000
     0.7360      0.000000
     0.7365      0.000060
     0.7370      0.000420
     0.7375      0.000000
     0.7380      0.000000
     0.7385      0.000000
     0.7390      0.000370
     0.7395      0.000260
     0.7400      0.000000
     0.7405      0.000000
     0.7410      0.000120
     0.7415      0.000110
     0.7420      0.000040
     0.7425      0.000000
     0.7430      0.000000
     0.7435      0.000060
     0.7440      0.000170
     0.7445      0.000000
     0.7450      0.000040
     0.7455      0.000130
     0.7460      0.000080
     0.7465      0.000000
     0.7470      0.000000
     0.7475      0.000010
     0.7480      0.000000
     0.7485      0.000140
     0.7490      0.000000
     0.7495      0.000040
     0.7500      0.000030
     0.7505      0.000000
     0.7510      0.000000
     0.7515      0.000130
     0.7520      0.000000
     0.7525      0.000070
     0.7530      0.000070
     0.7535      0.000070
     0.7540      0.000010
     0.7545      0.000010
     0.7550      0.000080
     0.7555      0.000010
     0.7560      0.000000
     0.7565      0.000000
     0.7570      0.000000
     0.7575      0.000070
     0.7580      0.000060
     0.7585      0.000000
     0.7590      0.000000
     0.7595      0.000050
     0.7600      0.000000
     0.7605      0.000000
     0.7610      0.000010
     0.7615      0.000090
     0.7620      0.000340
     0.7625      0.000000
     0.7630      0.000000
     0.7635      0.000340
     0.7640      0.004860
     0.7645      0.001030
     0.7650      0.000000
     0.7655      0.000000
     0.7660      0.000750
     0.7665      0.000920
     0.7670      0.000000
     0.7675      0.000000
     0.7680      0.000000
     0.7685      0.000000
     0.7690      0.000010
     0.7695      0.000060
     0.7700      0.000000
     0.7705      0.000000
     0.7710      0.000110
     0.7715      0.000000
     0.7720      0.000060
     0.7725      0.000000
     0.7730      0.000070
     0.7735      0.000080
     0.7740      0.000000
     0.7745      0.000010
     0.7750      0.000010
     0.7755      0.000060
     0.7760      0.000030
     0.7765      0.000000
     0.7770      0.000000
     0.7775      0.000020
     0.7780      0.000110
     0.7785      0.000010
     0.7790      0.000060
     0.7795      0.000000
     0.7800      0.000090
     0.7805      0.000140
     0.7810      0.000020
     0.7815      0.000040
     0.7820      0.000000
     0.7825      0.000040
     0.7830      0.000000
     0.7835      0.000000
     0.7840      0.000030
     0.7845      0.000150
     0.7850      0.000090
     0.7855      0.000110
     0.7860      0.000030
     0.7865      0.000010
     0.7870      0.000070
     0.7875      0.000000
     0.7880      0.000000
     0.7885      0.000000
     0.7890      0.000040
     0.7895      0.000000
     0.7900      0.000000
     0.7905      0.000000
     0.7910      0.000000
     0.7915      0.000040
     0.7920      0.000010
     0.7925      0.000000
     0.7930      0.000070
     0.7935      0.000060
     0.7940      0.000000
     0.7945      0.000020
     0.7950      0.000070
     0.7955      0.000000
     0.7960      0.000180
     0.7965      0.000000
     0.7970      0.000000
     0.7975      0.000000
     0.7980      0.000010
     0.7985      0.000030
     0.7990      0.000030
     0.7995      0.000000
     0.8000      0.000000
     0.8005      0.000140
     0.8010      0.000050
     0.8015      0.000010
     0.8020      0.000000
     0.8025      0.000080
     0.8030      0.000000
     0.8035      0.000080
     0.8040      0.000000
     0.8045      0.000020
     0.8050      0.000100
     0.8055      0.000000
     0.8060      0.000050
     0.8065      0.000000
     0.8070      0.000070
     0.8075      0.000010
     0.8080      0.000070
     0.8085      0.000000
     0.8090      0.000000
     0.8095      0.000050
     0.8100      0.000030
     0.8105      0.000000
     0.8110      0.000160
     0.8115      0.000040
     0.8120      0.000030
     0.8125      0.000100
     0.8130      0.000000
     0.8135      0.000000
     0.8140      0.000210
     0.8145      0.000000
     0.8150      0.000020
     0.8155      0.000000
     0.8160      0.000010
     0.8165      0.000060
     0.8170      0.000080
     0.8175      0.000010
     0.8180      0.000010
     0.8185      0.000050
     0.8190      0.000080
     0.8195      0.000050
     0.8200      0.000000
     0.8205      0.000000
     0.8210      0.000300
     0.8215      0.000340
     0.8220      0.000000
     0.8225      0.000000
     0.8230      0.000060
     0.8235      0.000040
     0.8240      0.000090
     0.8245      0.000000
     0.8250      0.000080
     0.8255      0.000000
     0.8260      0.000070
     0.8265      0.000090
     0.8270      0.000000
     0.8275      0.000010
     0.8280      0.000020
     0.8285      0.000020
     0.8290      0.000030
     0.8295      0.000020
     0.8300      0.000000
     0.8305      0.000000
     0.8310      0.000050
     0.8315      0.000140
     0.8320      0.000070
     0.8325      0.000060
     0.8330      0.000330
     0.8335      0.000000
     0.8340      0.000000
     0.8345      0.000040
     0.8350      0.000090
     0.8355      0.000210
     0.8360      0.000010
     0.8365      0.000000
     0.8370      0.000000
     0.8375      0.000000
     0.8380      0.000140
     0.8385      0.000180
     0.8390      0.000020
     0.8395      0.000000
     0.8400      0.000000
     0.8405      0.000080
     0.8410      0.000240
     0.8415      0.000050
     0.8420      0.000000
     0.8425      0.000000
     0.8430      0.000170
     0.8435      0.000260
     0.8440      0.000010
     0.8445      0.000000
     0.8450      0.000000
     0.8455      0.000050
     0.8460      0.000010
     0.8465      0.000000
     0.8470      0.000060
     0.8475      0.000060
     0.8480      0.000030
     0.8485      0.000020
     0.8490      0.000000
     0.8495      0.000040
     0.8500      0.000040
     0.8505      0.000000
     0.8510      0.000070
     0.8515      0.000090
     0.8520      0.000050
     0.8525      0.000020
     0.8530      0.000040
     0.8535      0.000010
     0.8540      0.000010
     0.8545      0.000020
     0.8550      0.000020
     0.8555      0.000030
     0.8560      0.000010
     0.8565      0.000000
     0.8570      0.000000
     0.8575      0.000000
     0.8580      0.000030
     0.8585      0.000040
     0.8590      0.000120
     0.8595      0.000000
     0.8600      0.000000
     0.8605      0.000000
     0.8610      0.000000
     0.8615      0.000000
     0.8620      0.000050
     0.8625      0.000020
     0.8630      0.000000
     0.8635      0.000020
     0.8640      0.000060
     0.8645      0.000010
     0.8650      0.000040
     0.8655      0.000020
     0.8660      0.000010
     0.8665      0.000010
     0.8670      0.000040
     0.8675      0.000040
     0.8680      0.000000
     0.8685      0.000030
     0.8690      0.000000
     0.8695      0.000020
     0.8700      0.000000
     0.8705      0.000000
     0.8710      0.000030
     0.8715      0.000000
     0.8720      0.000010
     0.8725      0.000000
     0.8730      0.000000
     0.8735      0.000000
     0.8740      0.000020
     0.8745      0.000000
     0.8750      0.000020
     0.8755      0.000000
     0.8760      0.000040
     0.8765      0.000170
     0.8770      0.000210
     0.8775      0.000040
     0.8780      0.000010
     0.8785      0.000000
     0.8790      0.000000
     0.8795      0.000040
     0.8800      0.000050
     0.8805      0.000010
     0.8810      0.000000
     0.8815      0.000000
     0.8820      0.000000
     0.8825      0.000050
     0.8830      0.000000
     0.8835      0.000040
     0.8840      0.000010
     0.8845      0.000000
     0.8850      0.000000
     0.8855      0.000050
     0.8860      0.000010
     0.8865      0.000000
     0.8870      0.000000
     0.8875      0.000010
     0.8880      0.000000
     0.8885      0.000000
     0.8890      0.000150
     0.8895      0.000290
     0.8900      0.000060
     0.8905      0.000000
     0.8910      0.000000
     0.8915      0.000000
     0.8920      0.000000
     0.8925      0.000010
     0.8930      0.000060
     0.8935      0.000040
     0.8940      0.000000
     0.8945      0.000000
     0.8950      0.000000
     0.8955      0.000000
     0.8960      0.000070
     0.8965      0.000000
     0.8970      0.000000
     0.8975      0.000030
     0.8980      0.000010
     0.8985      0.000030
     0.8990      0.000020
     0.8995      0.000020
     0.9000      0.000000
     0.9005      0.000000
     0.9010      0.000010
     0.9015      0.000030
     0.9020      0.000010
     0.9025      0.000010
     0.9030      0.000000
     0.9035      0.000020
     0.9040      0.000000
     0.9045      0.000000
     0.9050      0.000000
     0.9055      0.000000
     0.9060      0.000020
     0.9065      0.000000
     0.9070      0.000000
     0.9075      0.000000
     0.9080      0.000020
     0.9085      0.000010
     0.9090      0.000000
     0.9095      0.000000
     0.9100      0.000030
     0.9105      0.000060
     0.9110      0.000060
     0.9115      0.000050
     0.9120      0.000000
     0.9125      0.000000
     0.9130      0.000020
     0.9135      0.000010
     0.9140      0.000020
     0.9145      0.000000
     0.9150      0.000030
     0.9155      0.000040
     0.9160      0.000010
     0.9165      0.000000
     0.9170      0.000030
     0.9175      0.000010
     0.9180      0.000000
     0.9185      0.000000
     0.9190      0.000000
     0.9195      0.000000
     0.9200      0.000020
     0.9205      0.000000
     0.9210      0.000020
     0.9215      0.000050
     0.9220      0.000020
     0.9225      0.000020
     0.9230      0.000000
     0.9235      0.000020
     0.9240      0.000020
     0.9245      0.000000
     0.9250      0.000000
     0.9255      0.000000
     0.9260      0.000010
     0.9265      0.000010
     0.9270      0.000000
     0.9275      0.000000
     0.9280      0.000000
     0.9285      0.000000
     0.9290      0.000000
     0.9295      0.000020
     0.9300      0.000000
     0.9305      0.000010
     0.9310      0.000000
     0.9315      0.000030
     0.9320      0.000010
     0.9325      0.000010
     0.9330      0.000010
     0.9335      0.000000
     0.9340      0.000040
     0.9345      0.000010
     0.9350      0.000060
     0.9355      0.000000
     0.9360      0.000010
     0.9365      0.000000
     0.9370      0.000000
     0.9375      0.000040
     0.9380      0.000010
     0.9385      0.000040
     0.9390      0.000000
     0.9395      0.000000
     0.9400      0.000000
     0.9405      0.000010
     0.9410      0.000000
     0.9415      0.000000
     0.9420      0.000000
     0.9425      0.000000
     0.9430      0.000010
     0.9435      0.000000
     0.9440      0.000000
     0.9445      0.000010
     0.9450      0.000010
     0.9455      0.000010
     0.9460      0.000010
     0.9465      0.000020
     0.9470      0.000040
     0.9475      0.000010
     0.9480      0.000010
     0.9485      0.000010
     0.9490      0.000000
     0.9495      0.000000
     0.9500      0.000000
     0.9505      0.000030
     0.9510      0.000040
     0.9515      0.000040
     0.9520      0.000000
     0.9525      0.000020
     0.9530      0.000000
     0.9535      0.000020
     0.9540      0.000000
     0.9545      0.000000
     0.9550      0.000000
     0.9555      0.000010
     0.9560      0.000000
     0.9565      0.000010
     0.9570      0.000040
     0.9575      0.000010
     0.9580      0.000040
     0.9585      0.000030
     0.9590      0.000000
     0.9595      0.000010
     0.9600      0.000020
     0.9605      0.000000
     0.9610      0.000000
     0.9615      0.000010
     0.9620      0.000020
     0.9625      0.000030
     0.9630      0.000000
     0.9635      0.000000
     0.9640      0.000040
     0.9645      0.000010
     0.9650      0.000050
     0.9655      0.000000
     0.9660      0.000020
     0.9665      0.000000
     0.9670      0.000000
     0.9675      0.000000
     0.9680      0.000000
     0.9685      0.000010
     0.9690      0.000000
     0.9695      0.000000
     0.9700      0.000000
     0.9705      0.000000
     0.9710      0.000030
     0.9715      0.000010
     0.9720      0.000010
     0.9725      0.000000
     0.9730      0.000020
     0.9735      0.000020
     0.9740      0.000000
     0.9745      0.000000
     0.9750      0.000000
     0.9755      0.000020
     0.9760      0.000010
     0.9765      0.000000
     0.9770      0.000000
     0.9775      0.000000
     0.9780      0.000010
     0.9785      0.000000
     0.9790      0.000020
     0.9795      0.000000
     0.9800      0.000000
     0.9805      0.000010
     0.9810      0.000020
     0.9815      0.000010
     0.9820      0.000000
     0.9825      0.000000
     0.9830      0.000030
     0.9835      0.000000
     0.9840      0.000000
     0.9845      0.000000
     0.9850      0.000010
     0.9855      0.000000
     0.9860      0.000000
     0.9865      0.000000
     0.9870      0.000000
     0.9875      0.000010
     0.9880      0.000040
     0.9885      0.000000
     0.9890      0.000010
     0.9895      0.000030
     0.9900      0.000000
     0.9905      0.000000
     0.9910      0.000020
     0.9915      0.000040
     0.9920      0.000000
     0.9925      0.000000
     0.9930      0.000010
     0.9935      0.000000
     0.9940      0.000000
     0.9945      0.000010
     0.9950      0.000030
     0.9955      0.000000
     0.9960      0.000000
     0.9965      0.000040
     0.9970      0.000030
     0.9975      0.000020
     0.9980      0.000010
     0.9985      0.000030
     0.9990      0.000010
     0.9995      0.000000
     1.0000      0.000000
     1.0005      0.000000
     1.0010      0.000010
     1.0015      0.000000
     1.0020      0.000020
     1.0025      0.000000
     1.0030      0.000000
     1.0035      0.000000
     1.0040      0.000010
     1.0045      0.000000
     1.0050      0.000000
     1.0055      0.000000
     1.0060      0.000010
     1.0065      0.000000
     1.0070      0.000010
     1.0075      0.000020
     1.0080      0.000010
     1.0085      0.000010
     1.0090      0.000010
     1.0095      0.000010
     1.0100      0.000010
     1.0105      0.000010
     1.0110      0.000000
     1.0115      0.000010
     1.0120      0.000010
     1.0125      0.000000
     1.0130      0.000000
     1.0135      0.000010
     1.0140      0.000000
     1.0145      0.000010
     1.0150      0.000010
     1.0155      0.000000
     1.0160      0.000020
     1.0165      0.000000
     1.0170      0.000000
     1.0175      0.000020
     1.0180      0.000000
     1.0185      0.000000
     1.0190      0.000000
     1.0195      0.000000
     1.0200      0.000020
     1.0205      0.000000
     1.0210      0.000020
     1.0215      0.000000
     1.0220      0.000000
     1.0225      0.000000
     1.0230      0.000000
     1.0235      0.000000
     1.0240      0.000010
     1.0245      0.000020
     1.0250      0.000020
     1.0255      0.000000
     1.0260      0.000000
     1.0265      0.000000
     1.0270      0.000010
     1.0275      0.000000
     1.0280      0.000160
     1.0285      0.000240
     1.0290      0.000040
     1.0295      0.000020
     1.0300      0.000010
     1.0305      0.000000
     1.0310      0.000020
     1.0315      0.000000
     1.0320      0.000020
     1.0325      0.000000
     1.0330      0.000000
     1.0335      0.000000
     1.0340      0.000000
     1.0345      0.000000
     1.0350      0.000000
     1.0355      0.000040
     1.0360      0.000020
     1.0365      0.000010
     1.0370      0.000020
     1.0375      0.000000
     1.0380      0.000010
     1.0385      0.000010
     1.0390      0.000000
     1.0395      0.000000
     1.0400      0.000000
     1.0405      0.000010
     1.0410      0.000010
     1.0415      0.000020
     1.0420      0.000000
     1.0425      0.000030
     1.0430      0.000020
     1.0435      0.000040
     1.0440      0.000000
     1.0445      0.000000
     1.0450      0.000000
     1.0455      0.000000
     1.0460      0.000020
     1.0465      0.000010
     1.0470      0.000000
     1.0475      0.000040
     1.0480      0.000000
     1.0485      0.000010
     1.0490      0.000000
     1.0495      0.000000
     1.0500      0.000000
     1.0505      0.000010
     1.0510      0.000000
     1.0515      0.000010
     1.0520      0.000020
     1.0525      0.000000
     1.0530      0.000040
     1.0535      0.000040
     1.0540      0.000000
     1.0545      0.000030
     1.0550      0.000000
     1.0555      0.000020
     1.0560      0.000010
     1.0565      0.000000
     1.0570      0.000000
     1.0575      0.000010
     1.0580      0.000000
     1.0585      0.000000
     1.0590      0.000000
     1.0595      0.000040
     1.0600      0.000010
     1.0605      0.000020
     1.0610      0.000000
     1.0615      0.000010
     1.0620      0.000000
     1.0625      0.000010
     1.0630      0.000000
     1.0635      0.000010
     1.0640      0.000030
     1.0645      0.000020
     1.0650      0.000030
     1.0655      0.000000
     1.0660      0.000000
     1.0665      0.000000
     1.0670      0.000020
     1.0675      0.000050
     1.0680      0.000030
     1.0685      0.000000
     1.0690      0.000000
     1.0695      0.000020
     1.0700      0.000020
     1.0705      0.000010
     1.0710      0.000010
     1.0715      0.000020
     1.0720      0.000060
     1.0725      0.000000
     1.0730      0.000060
     1.0735      0.000010
     1.0740      0.000060
     1.0745      0.000070
     1.0750      0.000010
     1.0755      0.000000
     1.0760      0.000010
     1.0765      0.000050
     1.0770      0.000040
     1.0775      0.000030
     1.0780      0.000000
     1.0785      0.000100
     1.0790      0.000000
     1.0795      0.000000
     1.0800      0.000080
     1.0805      0.000030
     1.0810      0.000010
     1.0815      0.000000
     1.0820      0.000060
     1.0825      0.000030
     1.0830      0.000050
     1.0835      0.000000
     1.0840      0.000000
     1.0845      0.000030
     1.0850      0.000040
     1.0855      0.000050
     1.0860      0.000000
     1.0865      0.000040
     1.0870      0.000010
     1.0875      0.000030
     1.0880      0.000020
     1.0885      0.000000
     1.0890      0.000020
     1.0895      0.000010
     1.0900      0.000020
     1.0905      0.000050
     1.0910      0.000000
     1.0915      0.000010
     1.0920      0.000000
     1.0925      0.000000
     1.0930      0.000000
     1.0935      0.000000
     1.0940      0.000060
     1.0945      0.000010
     1.0950      0.000040
     1.0955      0.000100
     1.0960      0.000060
     1.0965      0.000000
     1.0970      0.000020
     1.0975      0.000000
     1.0980      0.000000
     1.0985      0.000000
     1.0990      0.000000
     1.0995      0.000010
     1.1000      0.000020
     1.1005      0.000090
     1.1010      0.000000
     1.1015      0.000030
     1.1020      0.000070
     1.1025      0.000010
     1.1030      0.000000
     1.1035      0.000040
     1.1040      0.000000
     1.1045      0.000070
     1.1050      0.000060
     1.1055      0.000050
     1.1060      0.000030
     1.1065      0.000040
     1.1070      0.000040
     1.1075      0.000000
     1.1080      0.000060
     1.1085      0.000050
     1.1090      0.000040
     1.1095      0.000040
     1.1100      0.000040
     1.1105      0.000110
     1.1110      0.000130
     1.1115      0.000120
     1.1120      0.000370
     1.1125      0.000000
     1.1130      0.000110
     1.1135      0.000000
     1.1140      0.000000
     1.1145      0.000720
     1.1150      0.001070
     1.1155      0.000780
     1.1160      0.001360
     1.1165      0.000000
     1.1170      0.001230
     1.1175      0.000000
     1.1180      0.000530
     1.1185      0.000370
     1.1190      0.000000
     1.1195      0.000620
     1.1200      0.000000
     1.1205      0.000250
     1.1210      0.000100
     1.1215      0.000000
     1.1220      0.000120
     1.1225      0.000680
     1.1230      0.000270
     1.1235      0.000000
     1.1240      0.002330
     1.1245      0.001130
     1.1250      0.000310
     1.1255      0.000000
     1.1260      0.000100
     1.1265      0.000490
     1.1270      0.000160
     1.1275      0.000230
     1.1280      0.000720
     1.1285      0.000350
     1.1290      0.000000
     1.1295      0.000000
     1.1300      0.000040
     1.1305      0.000310
     1.1310      0.000000
     1.1315      0.000080
     1.1320      0.000490
     1.1325      0.000000
     1.1330      0.000140
     1.1335      0.000080
     1.1340      0.000460
     1.1345      0.000250
     1.1350      0.000000
     1.1355      0.000000
     1.1360      0.000980
     1.1365      0.000000
     1.1370      0.000000
     1.1375      0.001150
     1.1380      0.000000
     1.1385      0.000000
     1.1390      0.001000
     1.1395      0.000000
     1.1400      0.002230
     1.1405      0.000780
     1.1410      0.000000
     1.1415      0.001160
     1.1420      0.000070
     1.1425      0.000130
     1.1430      0.000210
     1.1435      0.000330
     1.1440      0.000860
     1.1445      0.000000
     1.1450      0.000000
     1.1455      0.000330
     1.1460      0.000730
     1.1465      0.000150
     1.1470      0.000000
     1.1475      0.000000
     1.1480      0.002040
     1.1485      0.001990
     1.1490      0.000030
     1.1495      0.000000
     1.1500      0.001280
     1.1505      0.000000
     1.1510      0.001110
     1.1515      0.000000
     1.1520      0.000910
     1.1525      0.000000
     1.1530      0.000770
     1.1535      0.000000
     1.1540      0.000860
     1.1545      0.000050
     1.1550      0.001280
     1.1555      0.001010
     1.1560      0.000000
     1.1565      0.000900
     1.1570      0.000000
     1.1575      0.000170
     1.1580      0.000240
     1.1585      0.000330
     1.1590      0.001170
     1.1595      0.000590
     1.1600      0.001300
     1.1605      0.000660
     1.1610      0.000000
     1.1615      0.000770
     1.1620      0.000450
     1.1625      0.000370
     1.1630      0.000890
     1.1635      0.000860
     1.1640      0.000120
     1.1645      0.000720
     1.1650      0.001250
     1.1655      0.000620
     1.1660      0.000590
     1.1665      0.000000
     1.1670      0.001070
     1.1675      0.000410
     1.1680      0.000250
     1.1685      0.000490
     1.1690      0.001100
     1.1695      0.001080
     1.1700      0.001230
     1.1705      0.001170
     1.1710      0.000410
     1.1715      0.000000
     1.1720      0.000810
     1.1725      0.001370
     1.1730      0.000800
     1.1735      0.000000
     1.1740      0.000070
     1.1745      0.000000
     1.1750      0.000000
     1.1755      0.000000
     1.1760      0.000000
     1.1765      0.000950
     1.1770      0.000000
     1.1775      0.000890
     1.1780      0.000000
     1.1785      0.000140
     1.1790      0.000610
     1.1795      0.000000
     1.1800      0.000630
     1.1805      0.000200
     1.1810      0.000000
     1.1815      0.000970
     1.1820      0.000000
     1.1825      0.000000
     1.1830      0.000000
     1.1835      0.000000
     1.1840      0.000160
     1.1845      0.000410
     1.1850      0.001350
     1.1855      0.001090
     1.1860      0.000920
     1.1865      0.000070
     1.1870      0.001250
     1.1875      0.000000
     1.1880      0.001540
     1.1885      0.000000
     1.1890      0.000380
     1.1895      0.000280
     1.1900      0.000000
     1.1905      0.000240
     1.1910      0.000000
     1.1915      0.000060
     1.1920      0.000000
     1.1925      0.001080
     1.1930      0.000600
     1.1935      0.000000
     1.1940      0.000070
     1.1945      0.000710
     1.1950      0.000110
     1.1955      0.000320
     1.1960      0.000000
     1.1965      0.001210
     1.1970      0.000000
     1.1975      0.000010
     1.1980      0.000130
     1.1985      0.000610
     1.1990      0.000050
     1.1995      0.000400
     1.2000      0.000000
     1.2005      0.000000
     1.2010      0.000560
     1.2015      0.000000
     1.2020      0.000980
     1.2025      0.000000
     1.2030      0.000330
     1.2035      0.000330
     1.2040      0.000420
     1.2045      0.001330
     1.2050      0.000030
     1.2055      0.001200
     1.2060      0.000000
     1.2065      0.000000
     1.2070      0.000000
     1.2075      0.000090
     1.2080      0.000000
     1.2085      0.000070
     1.2090      0.000240
     1.2095      0.001090
     1.2100      0.000660
     1.2105      0.000050
     1.2110      0.000170
     1.2115      0.001410
     1.2120      0.001220
     1.2125      0.000060
     1.2130      0.000550
     1.2135      0.000000
     1.2140      0.000000
     1.2145      0.000380
     1.2150      0.000000
     1.2155      0.000230
     1.2160      0.000150
     1.2165      0.000270
     1.2170      0.000120
     1.2175      0.000150
     1.2180      0.000970
     1.2185      0.000050
     1.2190      0.000940
     1.2195      0.000030
     1.2200      0.000150
     1.2205      0.000040
     1.2210      0.000410
     1.2215      0.000100
     1.2220      0.000510
     1.2225      0.000240
     1.2230      0.000280
     1.2235      0.000750
     1.2240      0.000000
     1.2245      0.000490
     1.2250      0.000180
     1.2255      0.000000
     1.2260      0.000020
     1.2265      0.000000
     1.2270      0.000000
     1.2275      0.000190
     1.2280      0.000000
     1.2285      0.000000
     1.2290      0.000000
     1.2295      0.000000
     1.2300      0.000000
     1.2305      0.000000
     1.2310      0.000400
     1.2315      0.001360
     1.2320      0.000000
     1.2325      0.000000
     1.2330      0.000280
     1.2335      0.000210
     1.2340      0.000170
     1.2345      0.000000
     1.2350      0.000000
     1.2355      0.000600
     1.2360      0.000140
     1.2365      0.000370
     1.2370      0.000210
     1.2375      0.001560
     1.2380      0.000360
     1.2385      0.000000
     1.2390      0.000000
     1.2395      0.000000
     1.2400      0.001430
     1.2405      0.001200
     1.2410      0.000240
     1.2415      0.000020
     1.2420      0.000800
     1.2425      0.001170
     1.2430      0.000500
     1.2435      0.000040
     1.2440      0.000100
     1.2445      0.000190
     1.2450      0.000430
     1.2455      0.000460
     1.2460      0.000000
     1.2465      0.000230
     1.2470      0.000000
     1.2475      0.000540
     1.2480      0.000060
     1.2485      0.000790
     1.2490      0.000550
     1.2495      0.000000
     1.2500      0.000880
     1.2505      0.000000
     1.2510      0.000030
     1.2515      0.000000
     1.2520      0.000000
     1.2525      0.000910
     1.2530      0.000660
     1.2535      0.000000
     1.2540      0.000090
     1.2545      0.000330
     1.2550      0.000000
     1.2555      0.000040
     1.2560      0.001180
     1.2565      0.001060
     1.2570      0.000030
     1.2575      0.000630
     1.2580      0.000280
     1.2585      0.000420
     1.2590      0.000150
     1.2595      0.000270
     1.2600      0.000590
     1.2605      0.000630
     1.2610      0.000680
     1.2615      0.000090
     1.2620      0.000050
     1.2625      0.000140
     1.2630      0.000410
     1.2635      0.000290
     1.2640      0.000000
     1.2645      0.000040
     1.2650      0.000330
     1.2655      0.001440
     1.2660      0.000000
     1.2665      0.000300
     1.2670      0.000190
     1.2675      0.000180
     1.2680      0.000040
     1.2685      0.000000
     1.2690      0.000740
     1.2695      0.000000
     1.2700      0.000650
     1.2705      0.000710
     1.2710      0.001860
     1.2715      0.000070
     1.2720      0.000820
     1.2725      0.000040
     1.2730      0.000000
     1.2735      0.001450
     1.2740      0.000300
     1.2745      0.000140
     1.2750      0.000430
     1.2755      0.000480
     1.2760      0.000090
     1.2765      0.000000
     1.2770      0.001200
     1.2775      0.000000
     1.2780      0.000390
     1.2785      0.000040
     1.2790      0.000010
     1.2795      0.000010
     1.2800      0.000090
     1.2805      0.000340
     1.2810      0.000120
     1.2815      0.000090
     1.2820      0.000470
     1.2825      0.000530
     1.2830      0.000790
     1.2835      0.000270
     1.2840      0.000000
     1.2845      0.000000
     1.2850      0.000520
     1.2855      0.000310
     1.2860      0.000020
     1.2865      0.000000
     1.2870      0.000140
     1.2875      0.000440
     1.2880      0.000490
     1.2885      0.000000
     1.2890      0.000430
     1.2895      0.000000
     1.2900      0.000000
     1.2905      0.000000
     1.2910      0.000080
     1.2915      0.000450
     1.2920      0.000210
     1.2925      0.000400
     1.2930      0.000000
     1.2935      0.000710
     1.2940      0.000410
     1.2945      0.000040
     1.2950      0.000000
     1.2955      0.000140
     1.2960      0.000000
     1.2965      0.000000
     1.2970      0.000000
     1.2975      0.000020
     1.2980      0.000040
     1.2985      0.000050
     1.2990      0.000000
     1.2995      0.000000
     1.3000      0.000090
     1.3005      0.000230
     1.3010      0.000000
     1.3015      0.000080
     1.3020      0.000010
     1.3025      0.000000
     1.3030      0.000000
     1.3035      0.000000
     1.3040      0.000000
     1.3045      0.000550
     1.3050      0.000370
     1.3055      0.000000
     1.3060      0.000000
     1.3065      0.000000
     1.3070      0.000120
     1.3075      0.000000
     1.3080      0.000160
     1.3085      0.000010
     1.3090      0.000020
     1.3095      0.000130
     1.3100      0.000220
     1.3105      0.000750
     1.3110      0.000000
     1.3115      0.000220
     1.3120      0.000550
     1.3125      0.000740
     1.3130      0.000220
     1.3135      0.000710
     1.3140      0.000480
     1.3145      0.000240
     1.3150      0.001180
     1.3155      0.001360
     1.3160      0.000640
     1.3165      0.000440
     1.3170      0.000000
     1.3175      0.000000
     1.3180      0.000000
     1.3185      0.000000
     1.3190      0.000300
     1.3195      0.000140
     1.3200      0.000000
     1.3205      0.000490
     1.3210      0.000330
     1.3215      0.000000
     1.3220      0.000000
     1.3225      0.000000
     1.3230      0.000000
     1.3235      0.000120
     1.3240      0.000380
     1.3245      0.000250
     1.3250      0.001040
     1.3255      0.000000
     1.3260      0.000000
     1.3265      0.000080
     1.3270      0.000440
     1.3275      0.000250
     1.3280      0.000040
     1.3285      0.000440
     1.3290      0.000000
     1.3295      0.000000
     1.3300      0.000000
     1.3305      0.000000
     1.3310      0.001270
     1.3315      0.000090
     1.3320      0.000950
     1.3325      0.000340
     1.3330      0.000150
     1.3335      0.000420
     1.3340      0.000000
     1.3345      0.000000
     1.3350      0.000000
     1.3355      0.000000
     1.3360      0.000000
     1.3365      0.001140
     1.3370      0.000460
     1.3375      0.001000
     1.3380      0.000350
     1.3385      0.000510
     1.3390      0.000000
     1.3395      0.000000
     1.3400      0.000000
     1.3405      0.000240
     1.3410      0.000000
     1.3415      0.000000
     1.3420      0.000000
     1.3425      0.000240
     1.3430      0.000000
     1.3435      0.000170
     1.3440      0.000200
     1.3445      0.000000
     1.3450      0.000000
     1.3455      0.000070
     1.3460      0.000070
     1.3465      0.000030
     1.3470      0.000000
     1.3475      0.000060
     1.3480      0.000430
     1.3485      0.000000
     1.3490      0.000310
     1.3495      0.000250
     1.3500      0.000000
     1.3505      0.000590
     1.3510      0.000060
     1.3515      0.000000
     1.3520      0.000310
     1.3525      0.000000
     1.3530      0.000000
     1.3535      0.000000
     1.3540      0.000000
     1.3545      0.000710
     1.3550      0.000150
     1.3555      0.000000
     1.3560      0.000000
     1.3565      0.000000
     1.3570      0.000250
     1.3575      0.000000
     1.3580      0.000000
     1.3585      0.000000
     1.3590      0.000520
     1.3595      0.000000
     1.3600      0.000510
     1.3605      0.000000
     1.3610      0.000050
     1.3615      0.000460
     1.3620      0.000500
     1.3625      0.000000
     1.3630      0.000180
     1.3635      0.000000
     1.3640      0.000000
     1.3645      0.000000
     1.3650      0.000010
     1.3655      0.000310
     1.3660      0.000060
     1.3665      0.000130
     1.3670      0.000000
     1.3675      0.000290
     1.3680      0.000550
     1.3685      0.000000
     1.3690      0.000020
     1.3695      0.000080
     1.3700      0.000000
     1.3705      0.000170
     1.3710      0.000320
     1.3715      0.000000
     1.3720      0.000000
     1.3725      0.000120
     1.3730      0.000000
     1.3735      0.000000
     1.3740      0.000230
     1.3745      0.000000
     1.3750      0.000540
     1.3755      0.000000
     1.3760      0.000000
     1.3765      0.000020
     1.3770      0.000000
     1.3775      0.000000
     1.3780      0.000000
     1.3785      0.000000
     1.3790      0.000000
     1.3795      0.000000
     1.3800      0.000000
     1.3805      0.000000
     1.3810      0.000000
     1.3815      0.000790
     1.3820      0.000880
     1.3825      0.000130
     1.3830      0.000000
     1.3835      0.000000
     1.3840      0.000000
     1.3845      0.000000
     1.3850      0.000000
     1.3855      0.000000
     1.3860      0.000000
     1.3865      0.000840
     1.3870      0.000000
     1.3875      0.000650
     1.3880      0.000520
     1.3885      0.000000
     1.3890      0.000960
     1.3895      0.000000
     1.3900      0.000000
     1.3905      0.000000
     1.3910      0.000000
     1.3915      0.000000
     1.3920      0.000000
     1.3925      0.000690
     1.3930      0.000430
     1.3935      0.000000
     1.3940      0.000270
     1.3945      0.000680
     1.3950      0.000020
     1.3955      0.000160
     1.3960      0.001280
     1.3965      0.000030
     1.3970      0.000050
     1.3975      0.000360
     1.3980      0.000000
     1.3985      0.000000
     1.3990      0.000000
     1.3995      0.000000
     1.4000      0.000000
     1.4005      0.000000
     1.4010      0.000080
     1.4015      0.000420
     1.4020      0.000990
     1.4025      0.000210
     1.4030      0.000000
     1.4035      0.000050
     1.4040      0.000770
     1.4045      0.000130
     1.4050      0.000030
     1.4055      0.000070
     1.4060      0.000260
     1.4065      0.000520
     1.4070      0.000000
     1.4075      0.000910
     1.4080      0.000000
     1.4085      0.000000
     1.4090      0.000460
     1.4095      0.000130
     1.4100      0.000030
     1.4105      0.000270
     1.4110      0.000210
     1.4115      0.000070
     1.4120      0.000000
     1.4125      0.000040
     1.4130      0.000770
     1.4135      0.000160
     1.4140      0.000290
     1.4145      0.000890
     1.4150      0.000630
     1.4155      0.000350
     1.4160      0.000190
     1.4165      0.000000
     1.4170      0.000280
     1.4175      0.000660
     1.4180      0.000460
     1.4185      0.000340
     1.4190      0.000810
     1.4195      0.000330
     1.4200      0.000090
     1.4205      0.000260
     1.4210      0.001090
     1.4215      0.000340
     1.4220      0.000080
     1.4225      0.000310
     1.4230      0.000730
     1.4235      0.000350
     1.4240      0.000170
     1.4245      0.000190
     1.4250      0.000370
     1.4255      0.000000
     1.4260      0.000420
     1.4265      0.000430
     1.4270      0.000170
     1.4275      0.000000
     1.4280      0.000010
     1.4285      0.000300
     1.4290      0.000050
     1.4295      0.000000
     1.4300      0.000000
     1.4305      0.000690
     1.4310      0.000100
     1.4315      0.000000
     1.4320      0.000000
     1.4325      0.000000
     1.4330      0.000000
     1.4335      0.000370
     1.4340      0.000000
     1.4345      0.000000
     1.4350      0.000780
     1.4355      0.000160
     1.4360      0.000010
     1.4365      0.000050
     1.4370      0.000000
     1.4375      0.000050
     1.4380      0.000510
     1.4385      0.000000
     1.4390      0.000350
     1.4395      0.000930
     1.4400      0.000000
     1.4405      0.000020
     1.4410      0.000140
     1.4415      0.000190
     1.4420      0.000050
     1.4425      0.000910
     1.4430      0.000130
     1.4435      0.000000
     1.4440      0.000280
     1.4445      0.000040
     1.4450      0.000400
     1.4455      0.000000
     1.4460      0.000620
     1.4465      0.000640
     1.4470      0.000000
     1.4475      0.000000
     1.4480      0.000900
     1.4485      0.000590
     1.4490      0.000580
     1.4495      0.000070
     1.4500      0.000020
     1.4505      0.000920
     1.4510      0.000670
     1.4515      0.000350
     1.4520      0.001030
     1.4525      0.000110
     1.4530      0.000670
     1.4535      0.000780
     1.4540      0.000000
     1.4545      0.000010
     1.4550      0.000490
     1.4555      0.000350
     1.4560      0.000150
     1.4565      0.000270
     1.4570      0.000000
     1.4575      0.000420
     1.4580      0.000220
     1.4585      0.000660
     1.4590      0.000000
     1.4595      0.000000
     1.4600      0.000230
     1.4605      0.000550
     1.4610      0.000980
     1.4615      0.001800
     1.4620      0.000720
     1.4625      0.000090
     1.4630      0.000470
     1.4635      0.000080
     1.4640      0.000230
     1.4645      0.001530
     1.4650      0.001100
     1.4655      0.001880
     1.4660      0.001890
     1.4665      0.001720
     1.4670      0.001560
     1.4675      0.001520
     1.4680      0.000730
     1.4685      0.000880
     1.4690      0.001300
     1.4695      0.000720
     1.4700      0.001600
     1.4705      0.001560
     1.4710      0.001310
     1.4715      0.000670
     1.4720      0.001360
     1.4725      0.000000
     1.4730      0.000560
     1.4735      0.001650
     1.4740      0.001340
     1.4745      0.002020
     1.4750      0.001280
     1.4755      0.000350
     1.4760      0.000780
     1.4765      0.001040
     1.4770      0.000720
     1.4775      0.001800
     1.4780      0.001610
     1.4785      0.001780
     1.4790      0.001390
     1.4795      0.001500
     1.4800      0.000240
     1.4805      0.001160
     1.4810      0.001230
     1.4815      0.000990
     1.4820      0.000500
     1.4825      0.001380
     1.4830      0.000820
     1.4835      0.000830
     1.4840      0.000910
     1.4845      0.001050
     1.4850      0.001530
     1.4855      0.001100
     1.4860      0.001180
     1.4865      0.001390
     1.4870      0.001950
     1.4875      0.001910
     1.4880      0.001640
     1.4885      0.002220
     1.4890      0.001660
     1.4895      0.001280
     1.4900      0.001260
     1.4905      0.000570
     1.4910      0.001770
     1.4915      0.001570
     1.4920      0.001790
     1.4925      0.001340
     1.4930      0.000750
     1.4935      0.000660
     1.4940      0.000610
     1.4945      0.001130
     1.4950      0.000830
     1.4955      0.000080
     1.4960      0.000260
     1.4965      0.000360
     1.4970      0.001010
     1.4975      0.001170
     1.4980      0.000400
     1.4985      0.001300
     1.4990      0.001050
     1.4995      0.001350
     1.5000      0.001250
     1.5005      0.001800
     1.5010      0.000940
     1.5015      0.001070
     1.5020      0.001190
     1.5025      0.001060
     1.5030      0.001650
     1.5035      0.000630
     1.5040      0.000870
     1.5045      0.000600
     1.5050      0.001080
     1.5055      0.001600
     1.5060      0.001420
     1.5065      0.001240
     1.5070      0.000870
     1.5075      0.001260
     1.5080      0.002190
     1.5085      0.002430
     1.5090      0.002580
     1.5095      0.001160
     1.5100      0.000780
     1.5105      0.001820
     1.5110      0.001990
     1.5115      0.001080
     1.5120      0.001640
     1.5125      0.001020
     1.5130      0.001350
     1.5135      0.001710
     1.5140      0.001100
     1.5145      0.001460
     1.5150      0.002080
     1.5155      0.001700
     1.5160      0.000850
     1.5165      0.001720
     1.5170      0.001090
     1.5175      0.000910
     1.5180      0.001230
     1.5185      0.002170
     1.5190      0.001630
     1.5195      0.002510
     1.5200      0.002270
     1.5205      0.001760
     1.5210      0.001490
     1.5215      0.001510
     1.5220      0.001950
     1.5225      0.002690
     1.5230      0.001980
     1.5235      0.001970
     1.5240      0.002280
     1.5245      0.001810
     1.5250      0.001960
     1.5255      0.001810
     1.5260      0.002070
     1.5265      0.003070
     1.5270      0.003580
     1.5275      0.003670
     1.5280      0.003760
     1.5285      0.004200
     1.5290      0.004900
     1.5295      0.004890
     1.5300      0.005500
     1.5305      0.005970
     1.5310      0.006330
     1.5315      0.006880
     1.5320      0.008560
     1.5325      0.010230
     1.5330      0.011330
     1.5335      0.013370
     1.5340      0.015350
     1.5345      0.017630
     1.5350      0.020640
     1.5355      0.024030
     1.5360      0.027320
     1.5365      0.032870
     1.5370      0.038590
     1.5375      0.047040
     1.5380      0.057180
     1.5385      0.068990
     1.5390      0.083170
     1.5395      0.100370
     1.5400      0.122650
     1.5405      0.147910
     1.5410      0.179320
     1.5415      0.216660
     1.5420      0.259500
     1.5425      0.307230
     1.5430      0.361400
     1.5435      0.420190
     1.5440      0.480220
     1.5445      0.540260
     1.5450      0.598790
     1.5455      0.651440
     1.5460      0.698770
     1.5465      0.739040
     1.5470      0.772830
     1.5475      0.797090
     1.5480      0.817610
     1.5485      0.832440
     1.5490      0.844890
     1.5495      0.851640
     1.5500      0.857240
     1.5505      0.862150
     1.5510      0.866170
     1.5515      0.868500
     1.5520      0.872020
     1.5525      0.875440
     1.5530      0.877240
     1.5535      0.880430
     1.5540      0.883160
     1.5545      0.885510
     1.5550      0.887750
     1.5555      0.891120
     1.5560      0.893420
     1.5565      0.896410
     1.5570      0.900100
     1.5575      0.902970
     1.5580      0.904490
     1.5585      0.907520
     1.5590      0.910580
     1.5595      0.912760
     1.5600      0.913840
     1.5605      0.916250
     1.5610      0.916960
     1.5615      0.918580
     1.5620      0.920140
     1.5625      0.921090
     1.5630      0.921820
     1.5635      0.922760
     1.5640      0.924620
     1.5645      0.924200
     1.5650      0.925120
     1.5655      0.925490
     1.5660      0.925790
     1.5665      0.925350
     1.5670      0.926320
     1.5675      0.925690
     1.5680      0.925400
     1.5685      0.927070
     1.5690      0.927080
     1.5695      0.925900
     1.5700      0.925440
     1.5705      0.925230
     1.5710      0.923910
     1.5715      0.924540
     1.5720      0.925160
     1.5725      0.926040
     1.5730      0.926720
     1.5735      0.926070
     1.5740      0.926390
     1.5745      0.926120
     1.5750      0.926110
     1.5755      0.926020
     1.5760      0.926600
     1.5765      0.926850
     1.5770      0.926070
     1.5775      0.926270
     1.5780      0.927400
     1.5785      0.926710
     1.5790      0.926040
     1.5795      0.926810
     1.5800      0.927000
     1.5805      0.926840
     1.5810      0.926710
     1.5815      0.926940
     1.5820      0.925980
     1.5825      0.925700
     1.5830      0.925980
     1.5835      0.924980
     1.5840      0.923780
     1.5845      0.923830
     1.5850      0.924510
     1.5855      0.924210
     1.5860      0.924040
     1.5865      0.923290
     1.5870      0.921950
     1.5875      0.921290
     1.5880      0.922360
     1.5885      0.921610
     1.5890      0.920900
     1.5895      0.920700
     1.5900      0.920470
     1.5905      0.920190
     1.5910      0.920170
     1.5915      0.921070
     1.5920      0.921740
     1.5925      0.921400
     1.5930      0.921520
     1.5935      0.923370
     1.5940      0.922730
     1.5945      0.922060
     1.5950      0.923250
     1.5955      0.924030
     1.5960      0.924600
     1.5965      0.925040
     1.5970      0.925780
     1.5975      0.925870
     1.5980      0.927870
     1.5985      0.928310
     1.5990      0.928280
     1.5995      0.928850
     1.6000      0.928630
     1.6005      0.929590
     1.6010      0.928850
     1.6015      0.930040
     1.6020      0.930150
     1.6025      0.930420
     1.6030      0.930430
     1.6035      0.930460
     1.6040      0.930530
     1.6045      0.930010
     1.6050      0.930890
     1.6055      0.931350
     1.6060      0.931110
     1.6065      0.931050
     1.6070      0.932360
     1.6075      0.932270
     1.6080      0.932100
     1.6085      0.931330
     1.6090      0.931050
     1.6095      0.930990
     1.6100      0.931070
     1.6105      0.930150
     1.6110      0.930400
     1.6115      0.931340
     1.6120      0.931300
     1.6125      0.930280
     1.6130      0.930360
     1.6135      0.930110
     1.6140      0.929120
     1.6145      0.929150
     1.6150      0.927890
     1.6155      0.926470
     1.6160      0.924660
     1.6165      0.923220
     1.6170      0.919970
     1.6175      0.917600
     1.6180      0.915340
     1.6185      0.912810
     1.6190      0.910310
     1.6195      0.906540
     1.6200      0.902900
     1.6205      0.899630
     1.6210      0.897460
     1.6215      0.894460
     1.6220      0.890590
     1.6225      0.887770
     1.6230      0.884970
     1.6235      0.882360
     1.6240      0.880340
     1.6245      0.878610
     1.6250      0.877830
     1.6255      0.875790
     1.6260      0.874150
     1.6265      0.873340
     1.6270      0.872080
     1.6275      0.868710
     1.6280      0.864560
     1.6285      0.857750
     1.6290      0.847730
     1.6295      0.833750
     1.6300      0.814060
     1.6305      0.789380
     1.6310      0.757770
     1.6315      0.718880
     1.6320      0.674260
     1.6325      0.623260
     1.6330      0.568800
     1.6335      0.512980
     1.6340      0.455150
     1.6345      0.399180
     1.6350      0.347660
     1.6355      0.300230
     1.6360      0.257560
     1.6365      0.219900
     1.6370      0.186930
     1.6375      0.159240
     1.6380      0.136220
     1.6385      0.116010
     1.6390      0.098210
     1.6395      0.084460
     1.6400      0.071920
     1.6405      0.061730
     1.6410      0.053300
     1.6415      0.045800
     1.6420      0.039360
     1.6425      0.034140
     1.6430      0.030040
     1.6435      0.027220
     1.6440      0.024010
     1.6445      0.020930
     1.6450      0.018580
     1.6455      0.016910
     1.6460      0.014770
     1.6465      0.013560
     1.6470      0.012190
     1.6475      0.010940
     1.6480      0.010140
     1.6485      0.009090
     1.6490      0.008400
     1.6495      0.008040
     1.6500      0.007440
     1.6505      0.006460
     1.6510      0.005330
     1.6515      0.005480
     1.6520      0.004930
     1.6525      0.004810
     1.6530      0.004630
     1.6535      0.004760
     1.6540      0.004700
     1.6545      0.004960
     1.6550      0.004090
     1.6555      0.003660
     1.6560      0.004020
     1.6565      0.003490
     1.6570      0.003210
     1.6575      0.003510
     1.6580      0.002990
     1.6585      0.002710
     1.6590      0.003120
     1.6595      0.002440
     1.6600      0.002340
     1.6605      0.002840
     1.6610      0.002370
     1.6615      0.002010
     1.6620      0.002040
     1.6625      0.002330
     1.6630      0.002260
     1.6635      0.002440
     1.6640      0.002570
     1.6645      0.002380
     1.6650      0.002710
     1.6655      0.001670
     1.6660      0.001880
     1.6665      0.001580
     1.6670      0.001240
     1.6675      0.001410
     1.6680      0.001500
     1.6685      0.001480
     1.6690      0.001520
     1.6695      0.001840
     1.6700      0.001480
     1.6705      0.001910
     1.6710      0.001090
     1.6715      0.001140
     1.6720      0.001630
     1.6725      0.001870
     1.6730      0.001460
     1.6735      0.001470
     1.6740      0.001300
     1.6745      0.001340
     1.6750      0.001090
     1.6755      0.000650
     1.6760      0.001270
     1.6765      0.001070
     1.6770      0.001500
     1.6775      0.001690
     1.6780      0.001100
     1.6785      0.000480
     1.6790      0.000230
     1.6795      0.000770
     1.6800      0.000580
     1.6805      0.000690
     1.6810      0.000720
     1.6815      0.001200
     1.6820      0.001040
     1.6825      0.000810
     1.6830      0.000770
     1.6835      0.000670
     1.6840      0.000510
     1.6845      0.000710
     1.6850      0.000560
     1.6855      0.000390
     1.6860      0.000750
     1.6865      0.000640
     1.6870      0.000880
     1.6875      0.000800
     1.6880      0.000940
     1.6885      0.000790
     1.6890      0.000410
     1.6895      0.000960
     1.6900      0.000860
     1.6905      0.000420
     1.6910      0.000910
     1.6915      0.000890
     1.6920      0.000390
     1.6925      0.000270
     1.6930      0.000230
     1.6935      0.000470
     1.6940      0.000750
     1.6945      0.000940
     1.6950      0.000820
     1.6955      0.000680
     1.6960      0.000860
     1.6965      0.000890
     1.6970      0.000620
     1.6975      0.000320
     1.6980      0.000640
     1.6985      0.000610
     1.6990      0.000280
     1.6995      0.000650
     1.7000      0.000370
     1.7005      0.000360
     1.7010      0.000110
     1.7015      0.000150
     1.7020      0.000800
     1.7025      0.000000
     1.7030      0.000740
     1.7035      0.000570
     1.7040      0.000500
     1.7045      0.000660
     1.7050      0.000170
     1.7055      0.000030
     1.7060      0.000230
     1.7065      0.000000
     1.7070      0.000180
     1.7075      0.000330
     1.7080      0.000180
     1.7085      0.000620
     1.7090      0.000140
     1.7095      0.000000
     1.7100      0.000350
     1.7105      0.000360
     1.7110      0.000030
     1.7115      0.000000
     1.7120      0.000390
     1.7125      0.000350
     1.7130      0.000310
     1.7135      0.000170
     1.7140      0.000150
     1.7145      0.000370
     1.7150      0.000520
     1.7155      0.000600
     1.7160      0.000790
     1.7165      0.000540
     1.7170      0.000380
     1.7175      0.000000
     1.7180      0.000080
     1.7185      0.000450
     1.7190      0.000520
     1.7195      0.000670
     1.7200      0.000370
     1.7205      0.000030
     1.7210      0.000440
     1.7215      0.000760
     1.7220      0.000630
     1.7225      0.000600
     1.7230      0.001060
     1.7235      0.000210
     1.7240      0.000000
     1.7245      0.000020
     1.7250      0.000200
     1.7255      0.000690
     1.7260      0.000440
     1.7265      0.000800
     1.7270      0.000480
     1.7275      0.000590
     1.7280      0.000260
     1.7285      0.000290
     1.7290      0.000750
     1.7295      0.000640
     1.7300      0.000740
     1.7305      0.000600
     1.7310      0.000460
     1.7315      0.000310
     1.7320      0.001000
     1.7325      0.000880
     1.7330      0.000100
     1.7335      0.000200
     1.7340      0.000530
     1.7345      0.000020
     1.7350      0.000220
     1.7355      0.000180
     1.7360      0.000650
     1.7365      0.000780
     1.7370      0.000530
     1.7375      0.000020
     1.7380      0.000460
     1.7385      0.000300
     1.7390      0.000120
     1.7395      0.000040
     1.7400      0.000080
     1.7405      0.000170
     1.7410      0.000290
     1.7415      0.000010
     1.7420      0.000000
     1.7425      0.000000
     1.7430      0.000000
     1.7435      0.000000
     1.7440      0.000000
     1.7445      0.000000
     1.7450      0.000000
     1.7455      0.000000
     1.7460      0.000000
     1.7465      0.000210
     1.7470      0.000080
     1.7475      0.000070
     1.7480      0.000000
     1.7485      0.000000
     1.7490      0.000130
     1.7495      0.000610
     1.7500      0.000020
     1.7505      0.000000
     1.7510      0.000280
     1.7515      0.000490
     1.7520      0.000150
     1.7525      0.000110
     1.7530      0.000000
     1.7535      0.000240
     1.7540      0.000430
     1.7545      0.000420
     1.7550      0.000020
     1.7555      0.000090
     1.7560      0.000400
     1.7565      0.000090
     1.7570      0.000410
     1.7575      0.000580
     1.7580      0.000630
     1.7585      0.000160
     1.7590      0.000020
     1.7595      0.000410
     1.7600      0.000540
     1.7605      0.000260
     1.7610      0.000000
     1.7615      0.000000
     1.7620      0.000000
     1.7625      0.000000
     1.7630      0.000000
     1.7635      0.000000
     1.7640      0.000240
     1.7645      0.000140
     1.7650      0.000160
     1.7655      0.000150
     1.7660      0.000350
     1.7665      0.000200
     1.7670      0.000290
     1.7675      0.000310
     1.7680      0.000550
     1.7685      0.000290
     1.7690      0.000000
     1.7695      0.000060
     1.7700      0.000000
     1.7705      0.000410
     1.7710      0.000730
     1.7715      0.000050
     1.7720      0.000000
     1.7725      0.000000
     1.7730      0.000000
     1.7735      0.000000
     1.7740      0.000030
     1.7745      0.000050
     1.7750      0.000000
     1.7755      0.000570
     1.7760      0.000820
     1.7765      0.000580
     1.7770      0.000130
     1.7775      0.000070
     1.7780      0.000140
     1.7785      0.000000
     1.7790      0.000630
     1.7795      0.000590
     1.7800      0.000480
     1.7805      0.000160
     1.7810      0.000400
     1.7815      0.000590
     1.7820      0.000020
     1.7825      0.000640
     1.7830      0.000690
     1.7835      0.000410
     1.7840      0.000010
     1.7845      0.000000
     1.7850      0.000290
     1.7855      0.000140
     1.7860      0.000070
     1.7865      0.000020
     1.7870      0.000000
     1.7875      0.000010
     1.7880      0.000180
     1.7885      0.000360
     1.7890      0.000440
     1.7895      0.000050
     1.7900      0.000040
     1.7905      0.000200
     1.7910      0.000000
     1.7915      0.000350
     1.7920      0.000040
     1.7925      0.000000
     1.7930      0.000090
     1.7935      0.000000
     1.7940      0.000230
     1.7945      0.000290
     1.7950      0.000070
     1.7955      0.000000
     1.7960      0.000050
     1.7965      0.000000
     1.7970      0.000040
     1.7975      0.000620
     1.7980      0.000740
     1.7985      0.000300
     1.7990      0.000000
     1.7995      0.000000
     1.8000      0.000060
     1.8005      0.000010
     1.8010      0.000000
     1.8015      0.000000
     1.8020      0.000000
     1.8025      0.000000
     1.8030      0.000520
     1.8035      0.000720
     1.8040      0.000840
     1.8045      0.000070
     1.8050      0.000370
     1.8055      0.000380
     1.8060      0.000090
     1.8065      0.000040
     1.8070      0.000000
     1.8075      0.000060
     1.8080      0.000110
     1.8085      0.000870
     1.8090      0.000870
     1.8095      0.000380
     1.8100      0.000330
     1.8105      0.000470
     1.8110      0.000580
     1.8115      0.000370
     1.8120      0.000380
     1.8125      0.000250
     1.8130      0.000120
     1.8135      0.000000
     1.8140      0.000000
     1.8145      0.000000
     1.8150      0.000140
     1.8155      0.000000
     1.8160      0.000000
     1.8165      0.000030
     1.8170      0.000210
     1.8175      0.000620
     1.8180      0.000410
     1.8185      0.000380
     1.8190      0.000200
     1.8195      0.000450
     1.8200      0.000090
     1.8205      0.000160
     1.8210      0.000380
     1.8215      0.000490
     1.8220      0.000560
     1.8225      0.000110
     1.8230      0.000600
     1.8235      0.000070
     1.8240      0.000000
     1.8245      0.000000
     1.8250      0.000000
     1.8255      0.000000
     1.8260      0.000000
     1.8265      0.000030
     1.8270      0.000140
     1.8275      0.000000
     1.8280      0.000000
     1.8285      0.000000
     1.8290      0.000000
     1.8295      0.000000
     1.8300      0.000000
     1.8305      0.000020
     1.8310      0.000700
     1.8315      0.000190
     1.8320      0.000000
     1.8325      0.000150
     1.8330      0.000000
     1.8335      0.000000
     1.8340      0.000000
     1.8345      0.000000
     1.8350      0.000020
     1.8355      0.000090
     1.8360      0.000000
     1.8365      0.000000
     1.8370      0.000060
     1.8375      0.000000
     1.8380      0.000000
     1.8385      0.000140
     1.8390      0.000360
     1.8395      0.000610
     1.8400      0.000190
     1.8405      0.000010
     1.8410      0.000090
     1.8415      0.000000
     1.8420      0.000000
     1.8425      0.000000
     1.8430      0.000310
     1.8435      0.000380
     1.8440      0.000260
     1.8445      0.000550
     1.8450      0.000670
     1.8455      0.000290
     1.8460      0.000430
     1.8465      0.000210
     1.8470      0.000360
     1.8475      0.000090
     1.8480      0.000000
     1.8485      0.000080
     1.8490      0.000000
     1.8495      0.000000
     1.8500      0.000070
     1.8505      0.000050
     1.8510      0.000020
     1.8515      0.000000
     1.8520      0.000030
     1.8525      0.000170
     1.8530      0.000030
     1.8535      0.000090
     1.8540      0.000140
     1.8545      0.000310
     1.8550      0.000340
     1.8555      0.000030
     1.8560      0.000000
     1.8565      0.000000
     1.8570      0.000060
     1.8575      0.000000
     1.8580      0.000160
     1.8585      0.000070
     1.8590      0.000000
     1.8595      0.000000
     1.8600      0.000080
     1.8605      0.000160
     1.8610      0.000370
     1.8615      0.000380
     1.8620      0.000180
     1.8625      0.000030
     1.8630      0.000000
     1.8635      0.000000
     1.8640      0.000000
     1.8645      0.000000
     1.8650      0.000000
     1.8655      0.000010
     1.8660      0.000000
     1.8665      0.000000
     1.8670      0.000120
     1.8675      0.000340
     1.8680      0.000580
     1.8685      0.000190
     1.8690      0.000320
     1.8695      0.000430
     1.8700      0.000000
     1.8705      0.000000
     1.8710      0.000080
     1.8715      0.000000
     1.8720      0.000030
     1.8725      0.000000
     1.8730      0.000060
     1.8735      0.000000
     1.8740      0.000000
     1.8745      0.000000
     1.8750      0.000000
     1.8755      0.000000
     1.8760      0.000000
     1.8765      0.000040
     1.8770      0.000040
     1.8775      0.000000
     1.8780      0.000130
     1.8785      0.000320
     1.8790      0.000030
     1.8795      0.000010
     1.8800      0.000300
     1.8805      0.000280
     1.8810      0.000160
     1.8815      0.000170
     1.8820      0.000000
     1.8825      0.000060
     1.8830      0.000140
     1.8835      0.000000
     1.8840      0.000000
     1.8845      0.000000
     1.8850      0.000000
     1.8855      0.000000
     1.8860      0.000000
     1.8865      0.000000
     1.8870      0.000000
     1.8875      0.000000
     1.8880      0.000000
     1.8885      0.000000
     1.8890      0.000110
     1.8895      0.000180
     1.8900      0.000000
     1.8905      0.000000
     1.8910      0.000000
     1.8915      0.000000
     1.8920      0.000120
     1.8925      0.000160
     1.8930      0.000000
     1.8935      0.000000
     1.8940      0.000180
     1.8945      0.000030
     1.8950      0.000000
     1.8955      0.000000
     1.8960      0.000000
     1.8965      0.000000
     1.8970      0.000000
     1.8975      0.000000
     1.8980      0.000000
     1.8985      0.000000
     1.8990      0.000170
     1.8995      0.000040
     1.9000      0.000000
     1.9005      0.000030
     1.9010      0.000140
     1.9015      0.000190
     1.9020      0.000000
     1.9025      0.000000
     1.9030      0.000000
     1.9035      0.000000
     1.9040      0.000000
     1.9045      0.000000
     1.9050      0.000000
     1.9055      0.000000
     1.9060      0.000000
     1.9065      0.000000
     1.9070      0.000000
     1.9075      0.000000
     1.9080      0.000000
     1.9085      0.000000
     1.9090      0.000010
     1.9095      0.000380
     1.9100      0.000290
     1.9105      0.000000
     1.9110      0.000000
     1.9115      0.000100
     1.9120      0.000380
     1.9125      0.000270
     1.9130      0.000280
     1.9135      0.000000
     1.9140      0.000000
     1.9145      0.000270
     1.9150      0.000830
     1.9155      0.000380
     1.9160      0.000020
     1.9165      0.000320
     1.9170      0.000630
     1.9175      0.000540
     1.9180      0.000660
     1.9185      0.000590
     1.9190      0.000430
     1.9195      0.000000
     1.9200      0.000180
     1.9205      0.000040
     1.9210      0.000130
     1.9215      0.000540
     1.9220      0.000040
     1.9225      0.000140
     1.9230      0.000440
     1.9235      0.000530
     1.9240      0.000210
     1.9245      0.000110
     1.9250      0.000390
     1.9255      0.000050
     1.9260      0.000000
     1.9265      0.000000
     1.9270      0.000000
     1.9275      0.000030
     1.9280      0.000000
     1.9285      0.000110
     1.9290      0.000170
     1.9295      0.000100
     1.9300      0.000230
     1.9305      0.000020
     1.9310      0.000000
     1.9315      0.000000
     1.9320      0.000000
     1.9325      0.000000
     1.9330      0.000000
     1.9335      0.000320
     1.9340      0.000030
     1.9345      0.000010
     1.9350      0.000000
     1.9355      0.000000
     1.9360      0.000000
     1.9365      0.000220
     1.9370      0.000440
     1.9375      0.000000
     1.9380      0.000000
     1.9385      0.000000
     1.9390      0.000120
     1.9395      0.000160
     1.9400      0.000000
     1.9405      0.000010
     1.9410      0.000000
     1.9415      0.000000
     1.9420      0.000130
     1.9425      0.000370
     1.9430      0.000430
     1.9435      0.000050
     1.9440      0.000300
     1.9445      0.000090
     1.9450      0.000160
     1.9455      0.000220
     1.9460      0.000000
     1.9465      0.000000
     1.9470      0.000000
     1.9475      0.000000
     1.9480      0.000000
     1.9485      0.000000
     1.9490      0.000000
     1.9495      0.000110
     1.9500      0.000000
     1.9505      0.000000
     1.9510      0.000180
     1.9515      0.000620
     1.9520      0.000020
     1.9525      0.000000
     1.9530      0.000000
     1.9535      0.000030
     1.9540      0.000070
     1.9545      0.000000
     1.9550      0.000000
     1.9555      0.000000
     1.9560      0.000180
     1.9565      0.000040
     1.9570      0.000000
     1.9575      0.000000
     1.9580      0.000170
     1.9585      0.000390
     1.9590      0.000020
     1.9595      0.000000
     1.9600      0.000000
     1.9605      0.000000
     1.9610      0.000060
     1.9615      0.000070
     1.9620      0.000000
     1.9625      0.000000
     1.9630      0.000000
     1.9635      0.000000
     1.9640      0.000000
     1.9645      0.000000
     1.9650      0.000100
     1.9655      0.000000
     1.9660      0.000000
     1.9665      0.000000
     1.9670      0.000090
     1.9675      0.000360
     1.9680      0.000000
     1.9685      0.000000
     1.9690      0.000000
     1.9695      0.000000
     1.9700      0.000170
     1.9705      0.000510
     1.9710      0.000270
     1.9715      0.000060
     1.9720      0.000000
     1.9725      0.000000
     1.9730      0.000050
     1.9735      0.000360
     1.9740      0.000090
     1.9745      0.000000
     1.9750      0.000000
     1.9755      0.000000
     1.9760      0.000030
     1.9765      0.000010
     1.9770      0.000000
     1.9775      0.000090
     1.9780      0.000030
     1.9785      0.000030
     1.9790      0.000230
     1.9795      0.000100
     1.9800      0.000070
     1.9805      0.000050
     1.9810      0.000000
     1.9815      0.000240
     1.9820      0.000170
     1.9825      0.000000
     1.9830      0.000000
     1.9835      0.000000
     1.9840      0.000000
     1.9845      0.000080
     1.9850      0.000000
     1.9855      0.000040
     1.9860      0.000210
     1.9865      0.000030
     1.9870      0.000000
     1.9875      0.000000
     1.9880      0.000000
     1.9885      0.000000
     1.9890      0.000000
     1.9895      0.000000
     1.9900      0.000020
     1.9905      0.000030
     1.9910      0.000230
     1.9915      0.000220
     1.9920      0.000020
     1.9925      0.000000
     1.9930      0.000210
     1.9935      0.000550
     1.9940      0.000300
     1.9945      0.000040
     1.9950      0.000000
     1.9955      0.000000
     1.9960      0.000050
     1.9965      0.000130
     1.9970      0.000110
     1.9975      0.000000
     1.9980      0.000000
     1.9985      0.000010
     1.9990      0.000000
     1.9995      0.000000
     2.0000      0.000040
     2.0005      0.000120
     2.0010      0.000150
     2.0015      0.000000
     2.0020      0.000130
     2.0025      0.000260
     2.0030      0.000280
     2.0035      0.000150
     2.0040      0.000200
     2.0045      0.000580
     2.0050      0.000370
     2.0055      0.000380
     2.0060      0.000550
     2.0065      0.000310
     2.0070      0.000090
     2.0075      0.000000
     2.0080      0.000000
     2.0085      0.000000
     2.0090      0.000000
     2.0095      0.000000
     2.0100      0.000000
     2.0105      0.000000
     2.0110      0.000000
     2.0115      0.000000
     2.0120      0.000000
     2.0125      0.000000
     2.0130      0.000000
     2.0135      0.000040
     2.0140      0.000030
     2.0145      0.000010
     2.0150      0.000000
     2.0155      0.000000
     2.0160      0.000120
     2.0165      0.000400
     2.0170      0.000000
     2.0175      0.000040
     2.0180      0.000030
     2.0185      0.000020
     2.0190      0.000160
     2.0195      0.000000
     2.0200      0.000000
     2.0205      0.000000
     2.0210      0.000000
     2.0215      0.000000
     2.0220      0.000000
     2.0225      0.000000
     2.0230      0.000060
     2.0235      0.000050
     2.0240      0.000000
     2.0245      0.000000
     2.0250      0.000080
     2.0255      0.000100
     2.0260      0.000000
     2.0265      0.000000
     2.0270      0.000170
     2.0275      0.000340
     2.0280      0.000040
     2.0285      0.000000
     2.0290      0.000000
     2.0295      0.000070
     2.0300      0.000000
     2.0305      0.000030
     2.0310      0.000310
     2.0315      0.000070
     2.0320      0.000000
     2.0325      0.000000
     2.0330      0.000000
     2.0335      0.000000
     2.0340      0.000000
     2.0345      0.000000
     2.0350      0.000040
     2.0355      0.000310
     2.0360      0.000000
     2.0365      0.000000
     2.0370      0.000080
     2.0375      0.000020
     2.0380      0.000000
     2.0385      0.000000
     2.0390      0.000000
     2.0395      0.000120
     2.0400      0.000200
     2.0405      0.000230
     2.0410      0.000240
     2.0415      0.000100
     2.0420      0.000580
     2.0425      0.000380
     2.0430      0.000000
     2.0435      0.000000
     2.0440      0.000000
     2.0445      0.000000
     2.0450      0.000000
     2.0455      0.000000
     2.0460      0.000000
     2.0465      0.000000
     2.0470      0.000000
     2.0475      0.000000
     2.0480      0.000000
     2.0485      0.000000
     2.0490      0.000000
     2.0495      0.000000
     2.0500      0.000000
     2.0505      0.000010
     2.0510      0.000220
     2.0515      0.000450
     2.0520      0.000190
     2.0525      0.000170
     2.0530      0.000440
     2.0535      0.000280
     2.0540      0.000140
     2.0545      0.000270
     2.0550      0.000000
     2.0555      0.000000
     2.0560      0.000000
     2.0565      0.000000
     2.0570      0.000070
     2.0575      0.000420
     2.0580      0.000070
     2.0585      0.000000
     2.0590      0.000190
     2.0595      0.000060
     2.0600      0.000000
     2.0605      0.000090
     2.0610      0.000240
     2.0615      0.000000
     2.0620      0.000000
     2.0625      0.000000
     2.0630      0.000000
     2.0635      0.000010
     2.0640      0.000050
     2.0645      0.000230
     2.0650      0.000080
     2.0655      0.000000
     2.0660      0.000000
     2.0665      0.000000
     2.0670      0.000140
     2.0675      0.000350
     2.0680      0.000180
     2.0685      0.000060
     2.0690      0.000250
     2.0695      0.000390
     2.0700      0.000080
     2.0705      0.000000
     2.0710      0.000010
     2.0715      0.000020
     2.0720      0.000020
     2.0725      0.000100
     2.0730      0.000300
     2.0735      0.000570
     2.0740      0.000740
     2.0745      0.000300
     2.0750      0.000180
     2.0755      0.000250
     2.0760      0.000050
     2.0765      0.000220
     2.0770      0.000090
     2.0775      0.000000
     2.0780      0.000010
     2.0785      0.000220
     2.0790      0.000270
     2.0795      0.000300
     2.0800      0.000260
     2.0805      0.000120
     2.0810      0.000160
     2.0815      0.000330
     2.0820      0.000100
     2.0825      0.000000
     2.0830      0.000000
     2.0835      0.000120
     2.0840      0.000550
     2.0845      0.000630
     2.0850      0.000530
     2.0855      0.000440
     2.0860      0.000180
     2.0865      0.000000
     2.0870      0.000140
     2.0875      0.000240
     2.0880      0.000040
     2.0885      0.000000
     2.0890      0.000000
     2.0895      0.000000
     2.0900      0.000000
     2.0905      0.000000
     2.0910      0.000000
     2.0915      0.000040
     2.0920      0.000140
     2.0925      0.000050
     2.0930      0.000000
     2.0935      0.000000
     2.0940      0.000010
     2.0945      0.000150
     2.0950      0.000130
     2.0955      0.000000
     2.0960      0.000000
     2.0965      0.000290
     2.0970      0.000080
     2.0975      0.000040
     2.0980      0.000030
     2.0985      0.000000
     2.0990      0.000270
     2.0995      0.000460
     2.1000      0.000320
     2.1005      0.000070
     2.1010      0.000030
     2.1015      0.000380
     2.1020      0.000310
     2.1025      0.000220
     2.1030      0.000120
     2.1035      0.000000
     2.1040      0.000030
     2.1045      0.000010
     2.1050      0.000000
     2.1055      0.000000
     2.1060      0.000000
     2.1065      0.000000
     2.1070      0.000000
     2.1075      0.000000
     2.1080      0.000010
     2.1085      0.000050
     2.1090      0.000000
     2.1095      0.000000
     2.1100      0.000000
     2.1105      0.000260
     2.1110      0.000490
     2.1115      0.000010
     2.1120      0.000000
     2.1125      0.000000
     2.1130      0.000000
     2.1135      0.000000
     2.1140      0.000000
     2.1145      0.000040
     2.1150      0.000160
     2.1155      0.000040
     2.1160      0.000000
     2.1165      0.000000
     2.1170      0.000000
     2.1175      0.000000
     2.1180      0.000020
     2.1185      0.000070
     2.1190      0.000070
     2.1195      0.000210
     2.1200      0.000460
     2.1205      0.000190
     2.1210      0.000000
     2.1215      0.000000
     2.1220      0.000000
     2.1225      0.000000
     2.1230      0.000000
     2.1235      0.000000
     2.1240      0.000000
     2.1245      0.000000
     2.1250      0.000000
     2.1255      0.000000
     2.1260      0.000020
     2.1265      0.000320
     2.1270      0.000970
     2.1275      0.000900
     2.1280      0.000250
     2.1285      0.000000
     2.1290      0.000020
     2.1295      0.000090
     2.1300      0.000160
     2.1305      0.000360
     2.1310      0.000100
     2.1315      0.000090
     2.1320      0.000310
     2.1325      0.000220
     2.1330      0.000110
     2.1335      0.000140
     2.1340      0.000030
     2.1345      0.000000
     2.1350      0.000000
     2.1355      0.000110
     2.1360      0.000320
     2.1365      0.000360
     2.1370      0.000090
     2.1375      0.000000
     2.1380      0.000220
     2.1385      0.000280
     2.1390      0.000110
     2.1395      0.000000
     2.1400      0.000000
     2.1405      0.000220
     2.1410      0.000030
     2.1415      0.000000
     2.1420      0.000110
     2.1425      0.000200
     2.1430      0.000000
     2.1435      0.000000
     2.1440      0.000000
     2.1445      0.000000
     2.1450      0.000180
     2.1455      0.000300
     2.1460      0.000040
     2.1465      0.000360
     2.1470      0.000520
     2.1475      0.000220
     2.1480      0.000160
     2.1485      0.000370
     2.1490      0.000330
     2.1495      0.000080
     2.1500      0.000310
     2.1505      0.000410
     2.1510      0.000190
     2.1515      0.000110
     2.1520      0.000230
     2.1525      0.000230
     2.1530      0.000020
     2.1535      0.000000
     2.1540      0.000050
     2.1545      0.000410
     2.1550      0.000310
     2.1555      0.000020
     2.1560      0.000000
     2.1565      0.000000
     2.1570      0.000000
     2.1575      0.000010
     2.1580      0.000000
     2.1585      0.000000
     2.1590      0.000000
     2.1595      0.000160
     2.1600      0.000390
     2.1605      0.000140
     2.1610      0.000000
     2.1615      0.000000
     2.1620      0.000000
     2.1625      0.000000
     2.1630      0.000040
     2.1635      0.000000
     2.1640      0.000030
     2.1645      0.000140
     2.1650      0.000090
     2.1655      0.000010
     2.1660      0.000070
     2.1665      0.000010
     2.1670      0.000000
     2.1675      0.000060
     2.1680      0.000550
     2.1685      0.000460
     2.1690      0.000050
     2.1695      0.000000
     2.1700      0.000000
     2.1705      0.000000
     2.1710      0.000000
     2.1715      0.000000
     2.1720      0.000000
     2.1725      0.000000
     2.1730      0.000030
     2.1735      0.000120
     2.1740      0.000130
     2.1745      0.000240
     2.1750      0.000330
     2.1755      0.000290
     2.1760      0.000130
     2.1765      0.000010
     2.1770      0.000000
     2.1775      0.000000
     2.1780      0.000000
     2.1785      0.000000
     2.1790      0.000000
     2.1795      0.000030
     2.1800      0.000030
     2.1805      0.000000
     2.1810      0.000100
     2.1815      0.000330
     2.1820      0.000270
     2.1825      0.000000
     2.1830      0.000000
     2.1835      0.000020
     2.1840      0.000190
     2.1845      0.000250
     2.1850      0.000000
     2.1855      0.000130
     2.1860      0.000350
     2.1865      0.000270
     2.1870      0.000080
     2.1875      0.000040
     2.1880      0.000060
     2.1885      0.000130
     2.1890      0.000250
     2.1895      0.000140
     2.1900      0.000020
     2.1905      0.000130
     2.1910      0.000140
     2.1915      0.000000
     2.1920      0.000170
     2.1925      0.000100
     2.1930      0.000000
     2.1935      0.000000
     2.1940      0.000000
     2.1945      0.000000
     2.1950      0.000000
     2.1955      0.000090
     2.1960      0.000040
     2.1965      0.000000
     2.1970      0.000000
     2.1975      0.000000
     2.1980      0.000060
     2.1985      0.000050
     2.1990      0.000000
     2.1995      0.000000
     2.2000      0.000000
     2.2005      0.000000
     2.2010      0.000000
     2.2015      0.000000
     2.2020      0.000010
     2.2025      0.000130
     2.2030      0.000240
     2.2035      0.000430
     2.2040      0.000640
     2.2045      0.000390
     2.2050      0.000300
     2.2055      0.000370
     2.2060      0.000130
     2.2065      0.000000
     2.2070      0.000000
     2.2075      0.000000
     2.2080      0.000000
     2.2085      0.000000
     2.2090      0.000160
     2.2095      0.000250
     2.2100      0.000380
     2.2105      0.000680
     2.2110      0.000470
     2.2115      0.000000
     2.2120      0.000000
     2.2125      0.000040
     2.2130      0.000060
     2.2135      0.000000
     2.2140      0.000000
     2.2145      0.000000
     2.2150      0.000130
     2.2155      0.000350
     2.2160      0.000310
     2.2165      0.000300
     2.2170      0.000370
     2.2175      0.000550
     2.2180      0.000940
     2.2185      0.000850
     2.2190      0.000180
     2.2195      0.000010
     2.2200      0.000090
     2.2205      0.000190
     2.2210      0.000230
     2.2215      0.000500
     2.2220      0.000810
     2.2225      0.000970
     2.2230      0.000680
     2.2235      0.000370
     2.2240      0.000230
     2.2245      0.000110
     2.2250      0.000190
     2.2255      0.000270
     2.2260      0.000420
     2.2265      0.000550
     2.2270      0.000320
     2.2275      0.000010
     2.2280      0.000000
     2.2285      0.000310
     2.2290      0.000650
     2.2295      0.000620
     2.2300      0.000430
     2.2305      0.000380
     2.2310      0.000520
     2.2315      0.000560
     2.2320      0.000340
     2.2325      0.000410
     2.2330      0.000640
     2.2335      0.000450
     2.2340      0.000330
     2.2345      0.000530
     2.2350      0.000830
     2.2355      0.000970
     2.2360      0.000740
     2.2365      0.000670
     2.2370      0.000890
     2.2375      0.000930
     2.2380      0.000690
     2.2385      0.000460
     2.2390      0.000520
     2.2395      0.000630
     2.2400      0.000610
     2.2405      0.000780
     2.2410      0.000950
     2.2415      0.000650
     2.2420      0.000550
     2.2425      0.000870
     2.2430      0.000960
     2.2435      0.000860
     2.2440      0.000820
     2.2445      0.000800
     2.2450      0.000890
     2.2455      0.000990
     2.2460      0.001050
     2.2465      0.001130
     2.2470      0.001150
     2.2475      0.001060
     2.2480      0.000900
     2.2485      0.000800
     2.2490      0.000800
     2.2495      0.000690
     2.2500      0.000710
     2.2505      0.001190
     2.2510      0.001520
     2.2515      0.001250
     2.2520      0.001140
     2.2525      0.001310
     2.2530      0.001110
     2.2535      0.000720
     2.2540      0.000590
     2.2545      0.000920
     2.2550      0.001280
     2.2555      0.001200
     2.2560      0.001260
     2.2565      0.001420
     2.2570      0.001120
     2.2575      0.000940
     2.2580      0.001200
     2.2585      0.001390
     2.2590      0.001290
     2.2595      0.001040
     2.2600      0.000780
     2.2605      0.000700
     2.2610      0.000920
     2.2615      0.001170
     2.2620      0.001220
     2.2625      0.001110
     2.2630      0.000860
     2.2635      0.000750
     2.2640      0.001030
     2.2645      0.001410
     2.2650      0.001390
     2.2655      0.000860
     2.2660      0.000310
     2.2665      0.000380
     2.2670      0.000970
     2.2675      0.001420
     2.2680      0.001340
     2.2685      0.000980
     2.2690      0.000770
     2.2695      0.000960
     2.2700      0.001190
     2.2705      0.001090
     2.2710      0.001000
     2.2715      0.001070
     2.2720      0.000950
     2.2725      0.000790
     2.2730      0.000970
     2.2735      0.001110
     2.2740      0.000790
     2.2745      0.000610
     2.2750      0.001020
     2.2755      0.001220
     2.2760      0.001050
     2.2765      0.001210
     2.2770      0.001400
     2.2775      0.001180
     2.2780      0.000940
     2.2785      0.000930
     2.2790      0.001040
     2.2795      0.001120
     2.2800      0.001250
     2.2805      0.001330
     2.2810      0.001070
     2.2815      0.000870
     2.2820      0.000950
     2.2825      0.000980
     2.2830      0.001110
     2.2835      0.001070
     2.2840      0.000630
     2.2845      0.000610
     2.2850      0.001050
     2.2855      0.001240
     2.2860      0.001070
     2.2865      0.000650
     2.2870      0.000490
     2.2875      0.000790
     2.2880      0.001010
     2.2885      0.001120
     2.2890      0.000920
     2.2895      0.000590
     2.2900      0.000780
     2.2905      0.001330
     2.2910      0.001660
     2.2915      0.001560
     2.2920      0.001640
     2.2925      0.001980
     2.2930      0.001700
     2.2935      0.001110
     2.2940      0.001080
     2.2945      0.001330
     2.2950      0.001180
     2.2955      0.001070
     2.2960      0.001360
     2.2965      0.001340
     2.2970      0.000950
     2.2975      0.000890
     2.2980      0.001210
     2.2985      0.001460
     2.2990      0.001500
     2.2995      0.001480
     2.3000      0.001580
     2.3005      0.001540
     2.3010      0.001040
     2.3015      0.000640
     2.3020      0.000880
     2.3025      0.001270
     2.3030      0.001250
     2.3035      0.001060
     2.3040      0.001050
     2.3045      0.001210
     2.3050      0.001560
     2.3055      0.001850
     2.3060      0.001730
     2.3065      0.001400
     2.3070      0.001150
     2.3075      0.001020
     2.3080      0.001070
     2.3085      0.001190
     2.3090      0.001360
     2.3095      0.001610
     2.3100      0.001630
     2.3105      0.001380
     2.3110      0.000930
     2.3115      0.000530
     2.3120      0.000540
     2.3125      0.000640
     2.3130      0.000780
     2.3135      0.001060
     2.3140      0.001240
     2.3145      0.001420
     2.3150      0.001470
     2.3155      0.001220
     2.3160      0.001050
     2.3165      0.001090
     2.3170      0.000980
     2.3175      0.000750
     2.3180      0.000750
     2.3185      0.001010
     2.3190      0.001310
     2.3195      0.001340
     2.3200      0.001050
     2.3205      0.001010
     2.3210      0.001390
     2.3215      0.001510
     2.3220      0.001250
     2.3225      0.001140
     2.3230      0.001050
     2.3235      0.000790
     2.3240      0.000780
     2.3245      0.000980
     2.3250      0.001190
     2.3255      0.001350
     2.3260      0.001330
     2.3265      0.001300
     2.3270      0.001310
     2.3275      0.001320
     2.3280      0.001260
     2.3285      0.001220
     2.3290      0.001170
     2.3295      0.000800
     2.3300      0.000500
     2.3305      0.000500
     2.3310      0.000620
     2.3315      0.001010
     2.3320      0.001380
     2.3325      0.001220
     2.3330      0.000770
     2.3335      0.000580
     2.3340      0.000760
     2.3345      0.000970
     2.3350      0.000980
     2.3355      0.001140
     2.3360      0.001530
     2.3365      0.001330
     2.3370      0.000650
     2.3375      0.000570
     2.3380      0.000750
     2.3385      0.001010
     2.3390      0.001560
     2.3395      0.001690
     2.3400      0.001520
     2.3405      0.001330
     2.3410      0.001050
     2.3415      0.001090
     2.3420      0.001330
     2.3425      0.001260
     2.3430      0.001120
     2.3435      0.001190
     2.3440      0.001090
     2.3445      0.000820
     2.3450      0.000850
     2.3455      0.000990
     2.3460      0.001140
     2.3465      0.001260
     2.3470      0.001070
     2.3475      0.000940
     2.3480      0.001020
     2.3485      0.001080
     2.3490      0.001040
     2.3495      0.000910
     2.3500      0.000900
     2.3505      0.001000
     2.3510      0.001010
     2.3515      0.000880
     2.3520      0.000860
     2.3525      0.001100
     2.3530      0.001380
     2.3535      0.001440
     2.3540      0.001430
     2.3545      0.001360
     2.3550      0.001040
     2.3555      0.000900
     2.3560      0.001110
     2.3565      0.001300
     2.3570      0.001220
     2.3575      0.001090
     2.3580      0.001200
     2.3585      0.001370
     2.3590      0.001340
     2.3595      0.001270
     2.3600      0.001280
     2.3605      0.001200
     2.3610      0.001010
     2.3615      0.000860
     2.3620      0.000730
     2.3625      0.000740
     2.3630      0.000940
     2.3635      0.001330
     2.3640      0.001690
     2.3645      0.001660
     2.3650      0.001530
     2.3655      0.001650
     2.3660      0.001780
     2.3665      0.001630
     2.3670      0.001340
     2.3675      0.001130
     2.3680      0.000910
     2.3685      0.000750
     2.3690      0.000970
     2.3695      0.001320
     2.3700      0.001390
     2.3705      0.001370
     2.3710      0.001160
     2.3715      0.000890
     2.3720      0.001070
     2.3725      0.001480
     2.3730      0.001480
     2.3735      0.001020
     2.3740      0.000730
     2.3745      0.000860
     2.3750      0.001110
     2.3755      0.001250
     2.3760      0.001370
     2.3765      0.001390
     2.3770      0.001230
     2.3775      0.001140
     2.3780      0.001130
     2.3785      0.001090
     2.3790      0.001090
     2.3795      0.001240
     2.3800      0.001410
     2.3805      0.001440
     2.3810      0.001330
     2.3815      0.001410
     2.3820      0.001620
     2.3825      0.001570
     2.3830      0.001500
     2.3835      0.001560
     2.3840      0.001550
     2.3845      0.001400
     2.3850      0.001330
     2.3855      0.001410
     2.3860      0.001370
     2.3865      0.001210
     2.3870      0.001410
     2.3875      0.001750
     2.3880      0.001820
     2.3885      0.001770
     2.3890      0.001580
     2.3895      0.001330
     2.3900      0.001180
     2.3905      0.001240
     2.3910      0.001470
     2.3915      0.001670
     2.3920      0.001700
     2.3925      0.001750
     2.3930      0.001680
     2.3935      0.001440
     2.3940      0.001430
     2.3945      0.001490
     2.3950      0.001510
     2.3955      0.001520
     2.3960      0.001460
     2.3965      0.001200
     2.3970      0.001070
     2.3975      0.001330
     2.3980      0.001510
     2.3985      0.001360
     2.3990      0.001170
     2.3995      0.001100
     2.4000      0.001230
     2.4005      0.001420
     2.4010      0.001450
     2.4015      0.001230
     2.4020      0.000950
     2.4025      0.000950
     2.4030      0.001370
     2.4035      0.001650
     2.4040      0.001450
     2.4045      0.001240
     2.4050      0.001120
     2.4055      0.000940
     2.4060      0.000830
     2.4065      0.000960
     2.4070      0.000870
     2.4075      0.000330
     2.4080      0.000390
     2.4085      0.000920
     2.4090      0.001180
     2.4095      0.001100
     2.4100      0.000900
     2.4105      0.000750
     2.4110      0.000760
     2.4115      0.001020
     2.4120      0.001350
     2.4125      0.001370
     2.4130      0.001180
     2.4135      0.001060
     2.4140      0.001020
     2.4145      0.000840
     2.4150      0.000660
     2.4155      0.000870
     2.4160      0.001500
     2.4165      0.001730
     2.4170      0.001200
     2.4175      0.000810
     2.4180      0.000930
     2.4185      0.001120
     2.4190      0.001000
     2.4195      0.000840
     2.4200      0.000990
     2.4205      0.001110
     2.4210      0.000790
     2.4215      0.000780
     2.4220      0.000870
     2.4225      0.000880
     2.4230      0.000950
     2.4235      0.001100
     2.4240      0.001350
     2.4245      0.001580
     2.4250      0.001410
     2.4255      0.000750
     2.4260      0.000360
     2.4265      0.000330
     2.4270      0.000570
     2.4275      0.000910
     2.4280      0.001140
     2.4285      0.001140
     2.4290      0.000990
     2.4295      0.000800
     2.4300      0.000740
     2.4305      0.000820
     2.4310      0.000830
     2.4315      0.000840
     2.4320      0.000830
     2.4325      0.000700
     2.4330      0.000350
     2.4335      0.000060
     2.4340      0.000010
     2.4345      0.000000
     2.4350      0.000000
     2.4355      0.000000
     2.4360      0.000160
     2.4365      0.000360
     2.4370      0.000210
     2.4375      0.000000
     2.4380      0.000120
     2.4385      0.000420
     2.4390      0.000650
     2.4395      0.000660
     2.4400      0.000560
     2.4405      0.000480
     2.4410      0.000330
     2.4415      0.000000
     2.4420      0.000000
     2.4425      0.000000
     2.4430      0.000070
     2.4435      0.000270
     2.4440      0.000320
     2.4445      0.000030
     2.4450      0.000000
     2.4455      0.000000
     2.4460      0.000000
     2.4465      0.000000
     2.4470      0.000000
     2.4475      0.000000
     2.4480      0.000000
     2.4485      0.000000
     2.4490      0.000000
     2.4495      0.000000
     2.4500      0.000080
     2.4505      0.000230
     2.4510      0.000400
     2.4515      0.000390
     2.4520      0.000160
     2.4525      0.000130
     2.4530      0.000420
     2.4535      0.000110
     2.4540      0.000000
     2.4545      0.000000
     2.4550      0.000080
     2.4555      0.000180
     2.4560      0.000030
     2.4565      0.000000
     2.4570      0.000000
     2.4575      0.000000
     2.4580      0.000000
     2.4585      0.000070
     2.4590      0.000170
     2.4595      0.000000
     2.4600      0.000000
     2.4605      0.000240
     2.4610      0.000290
     2.4615      0.000190
     2.4620      0.000070
     2.4625      0.000000
     2.4630      0.000030
     2.4635      0.000480
     2.4640      0.000640
     2.4645      0.000380
     2.4650      0.000100
     2.4655      0.000000
     2.4660      0.000060
     2.4665      0.000310
     2.4670      0.000420
     2.4675      0.000250
     2.4680      0.000130
     2.4685      0.000080
     2.4690      0.000050
     2.4695      0.000000
     2.4700      0.000020
     2.4705      0.000100
     2.4710      0.000030
     2.4715      0.000010
     2.4720      0.000170
     2.4725      0.000440
     2.4730      0.000540
     2.4735      0.000550
     2.4740      0.000430
     2.4745      0.000180
     2.4750      0.000030
     2.4755      0.000030
     2.4760      0.000090
     2.4765      0.000090
     2.4770      0.000190
     2.4775      0.000330
     2.4780      0.000340
     2.4785      0.000180
     2.4790      0.000000
     2.4795      0.000000
     2.4800      0.000000
     2.4805      0.000200
     2.4810      0.000260
     2.4815      0.000210
     2.4820      0.000160
     2.4825      0.000210
     2.4830      0.000270
     2.4835      0.000550
     2.4840      0.000400
     2.4845      0.000140
     2.4850      0.000010
     2.4855      0.000020
     2.4860      0.000000
     2.4865      0.000000
     2.4870      0.000130
     2.4875      0.000210
     2.4880      0.000150
     2.4885      0.000000
     2.4890      0.000010
     2.4895      0.000240
     2.4900      0.000320
     2.4905      0.000150
     2.4910      0.000000
     2.4915      0.000000
     2.4920      0.000000
     2.4925      0.000000
     2.4930      0.000000
     2.4935      0.000000
     2.4940      0.000000
     2.4945      0.000000
     2.4950      0.000000
     2.4955      0.000070
     2.4960      0.000100
     2.4965      0.000210
     2.4970      0.000560
     2.4975      0.000950
     2.4980      0.000770
     2.4985      0.000100
     2.4990      0.000000
     2.4995      0.000140
     2.5000      0.000190
     2.5005      0.000070
     2.5010      0.000000
     2.5015      0.000000
     2.5020      0.000000
     2.5025      0.000000
     2.5030      0.000000
     2.5035      0.000030
     2.5040      0.000170
     2.5045      0.000240
     2.5050      0.000420
     2.5055      0.000460
     2.5060      0.000350
     2.5065      0.000180
     2.5070      0.000090
     2.5075      0.000020
     2.5080      0.000000
     2.5085      0.000000
     2.5090      0.000000
     2.5095      0.000000
     2.5100      0.000000
     2.5105      0.000000
     2.5110      0.000250
     2.5115      0.000480
     2.5120      0.000500
     2.5125      0.000340
     2.5130      0.000160
     2.5135      0.000080
     2.5140      0.000170
     2.5145      0.000260
     2.5150      0.000190
     2.5155      0.000210
     2.5160      0.000460
     2.5165      0.000580
     2.5170      0.000640
     2.5175      0.000720
     2.5180      0.000780
     2.5185      0.000520
     2.5190      0.000370
     2.5195      0.000390
     2.5200      0.000410
     2.5205      0.000290
     2.5210      0.000240
     2.5215      0.000240
     2.5220      0.000110
     2.5225      0.000020
     2.5230      0.000100
     2.5235      0.000320
     2.5240      0.000350
     2.5245      0.000270
     2.5250      0.000120
     2.5255      0.000010
     2.5260      0.000050
     2.5265      0.000200
     2.5270      0.000120
     2.5275      0.000050
     2.5280      0.000030
     2.5285      0.000050
     2.5290      0.000150
     2.5295      0.000140
     2.5300      0.000060
     2.5305      0.000010
     2.5310      0.000030
     2.5315      0.000060
     2.5320      0.000010
     2.5325      0.000000
     2.5330      0.000060
     2.5335      0.000120
     2.5340      0.000000
     2.5345      0.000000
     2.5350      0.000000
     2.5355      0.000000
     2.5360      0.000000
     2.5365      0.000000
     2.5370      0.000040
     2.5375      0.000020
     2.5380      0.000040
     2.5385      0.000130
     2.5390      0.000240
     2.5395      0.000290
     2.5400      0.000410
     2.5405      0.000420
     2.5410      0.000360
     2.5415      0.000310
     2.5420      0.000440
     2.5425      0.000480
     2.5430      0.000440
     2.5435      0.000350
     2.5440      0.000220
     2.5445      0.000020
     2.5450      0.000000
     2.5455      0.000000
     2.5460      0.000000
     2.5465      0.000000
     2.5470      0.000000
     2.5475      0.000000
     2.5480      0.000000
     2.5485      0.000080
     2.5490      0.000290
     2.5495      0.000310
     2.5500      0.000100
     2.5505      0.000000
     2.5510      0.000000
     2.5515      0.000000
     2.5520      0.000000
     2.5525      0.000000
     2.5530      0.000020
     2.5535      0.000130
     2.5540      0.000350
     2.5545      0.000260
     2.5550      0.000110
     2.5555      0.000020
     2.5560      0.000000
     2.5565      0.000000
     2.5570      0.000000
     2.5575      0.000000
     2.5580      0.000000
     2.5585      0.000000
     2.5590      0.000000
     2.5595      0.000000
     2.5600      0.000000
     2.5605      0.000000
     2.5610      0.000000
     2.5615      0.000000
     2.5620      0.000000
     2.5625      0.000030
     2.5630      0.000040
     2.5635      0.000000
     2.5640      0.000000
     2.5645      0.000300
     2.5650      0.000360
     2.5655      0.000240
     2.5660      0.000130
     2.5665      0.000020
     2.5670      0.000000
     2.5675      0.000190
     2.5680      0.000550
     2.5685      0.000880
     2.5690      0.001110
     2.5695      0.001170
     2.5700      0.001020
     2.5705      0.000670
     2.5710      0.000260
     2.5715      0.000070
     2.5720      0.000000
     2.5725      0.000080
     2.5730      0.000310
     2.5735      0.000310
     2.5740      0.000190
     2.5745      0.000100
     2.5750      0.000080
     2.5755      0.000000
     2.5760      0.000000
     2.5765      0.000000
     2.5770      0.000000
     2.5775      0.000000
     2.5780      0.000000
     2.5785      0.000160
     2.5790      0.000250
     2.5795      0.000210
     2.5800      0.000010
     2.5805      0.000000
     2.5810      0.000000
     2.5815      0.000000
     2.5820      0.000010
     2.5825      0.000060
     2.5830      0.000360
     2.5835      0.000430
     2.5840      0.000230
     2.5845      0.000010
     2.5850      0.000210
     2.5855      0.000370
     2.5860      0.000450
     2.5865      0.000440
     2.5870      0.000320
     2.5875      0.000240
     2.5880      0.000210
     2.5885      0.000180
     2.5890      0.000010
     2.5895      0.000000
     2.5900      0.000000
     2.5905      0.000000
     2.5910      0.000000
     2.5915      0.000000
     2.5920      0.000000
     2.5925      0.000000
     2.5930      0.000000
     2.5935      0.000000
     2.5940      0.000190
     2.5945      0.000620
     2.5950      0.001070
     2.5955      0.001170
     2.5960      0.000780
     2.5965      0.000410
     2.5970      0.000270
     2.5975      0.000470
     2.5980      0.000550
     2.5985      0.000400
     2.5990      0.000310
     2.5995      0.000390
     2.6000      0.000580
     2.6005      0.000540
     2.6010      0.000440
     2.6015      0.000350
     2.6020      0.000320
     2.6025      0.000110
     2.6030      0.000130
     2.6035      0.000300
     2.6040      0.000500
     2.6045      0.000290
     2.6050      0.000440
     2.6055      0.000700
     2.6060      0.000880
     2.6065      0.000780
     2.6070      0.000680
     2.6075      0.000650
     2.6080      0.000720
     2.6085      0.000980
     2.6090      0.001090
     2.6095      0.001000
     2.6100      0.000790
     2.6105      0.000630
     2.6110      0.000590
     2.6115      0.000700
     2.6120      0.000820
     2.6125      0.000710
     2.6130      0.000360
     2.6135      0.000240
     2.6140      0.000310
     2.6145      0.000470
     2.6150      0.000790
     2.6155      0.001220
     2.6160      0.001560
     2.6165      0.001630
     2.6170      0.001290
     2.6175      0.001110
     2.6180      0.000890
     2.6185      0.000530
     2.6190      0.000230
     2.6195      0.000470
     2.6200      0.000800
     2.6205      0.000970
     2.6210      0.000620
     2.6215      0.000480
     2.6220      0.000460
     2.6225      0.000480
     2.6230      0.000370
     2.6235      0.000320
     2.6240      0.000350
     2.6245      0.000470
     2.6250      0.000550
     2.6255      0.000640
     2.6260      0.000780
     2.6265      0.000900
     2.6270      0.000700
     2.6275      0.000290
     2.6280      0.000040
     2.6285      0.000000
     2.6290      0.000020
     2.6295      0.000430
     2.6300      0.000590
     2.6305      0.000390
     2.6310      0.000050
     2.6315      0.000000
     2.6320      0.000000
     2.6325      0.000000
     2.6330      0.000000
     2.6335      0.000080
     2.6340      0.000080
     2.6345      0.000000
     2.6350      0.000000
     2.6355      0.000000
     2.6360      0.000010
     2.6365      0.000060
     2.6370      0.000230
     2.6375      0.000440
     2.6380      0.000580
     2.6385      0.000570
     2.6390      0.000190
     2.6395      0.000040
     2.6400      0.000000
     2.6405      0.000010
     2.6410      0.000100
     2.6415      0.000120
     2.6420      0.000080
     2.6425      0.000000
     2.6430      0.000000
     2.6435      0.000000
     2.6440      0.000000
     2.6445      0.000000
     2.6450      0.000000
     2.6455      0.000000
     2.6460      0.000000
     2.6465      0.000000
     2.6470      0.000000
     2.6475      0.000010
     2.6480      0.000030
     2.6485      0.000080
     2.6490      0.000060
     2.6495      0.000080
     2.6500      0.000170
     2.6505      0.000280
     2.6510      0.000120
     2.6515      0.000000
     2.6520      0.000000
     2.6525      0.000000
     2.6530      0.000070
     2.6535      0.000090
     2.6540      0.000030
     2.6545      0.000160
     2.6550      0.000360
     2.6555      0.000500
     2.6560      0.000440
     2.6565      0.000130
     2.6570      0.000000
     2.6575      0.000000
     2.6580      0.000000
     2.6585      0.000310
     2.6590      0.000380
     2.6595      0.000250
     2.6600      0.000260
     2.6605      0.000420
     2.6610      0.000420
     2.6615      0.000190
     2.6620      0.000120
     2.6625      0.000150
     2.6630      0.000150
     2.6635      0.000010
     2.6640      0.000000
     2.6645      0.000040
     2.6650      0.000070
     2.6655      0.000010
     2.6660      0.000000
     2.6665      0.000000
     2.6670      0.000040
     2.6675      0.000360
     2.6680      0.000640
     2.6685      0.000640
     2.6690      0.000180
     2.6695      0.000050
     2.6700      0.000000
     2.6705      0.000000
     2.6710      0.000000
     2.6715      0.000000
     2.6720      0.000120
     2.6725      0.000300
     2.6730      0.000060
     2.6735      0.000000
     2.6740      0.000000
     2.6745      0.000000
     2.6750      0.000000
     2.6755      0.000000
     2.6760      0.000000
     2.6765      0.000000
     2.6770      0.000000
     2.6775      0.000070
     2.6780      0.000230
     2.6785      0.000690
     2.6790      0.000780
     2.6795      0.000600
     2.6800      0.000180
     2.6805      0.000130
     2.6810      0.000290
     2.6815      0.000560
     2.6820      0.000560
     2.6825      0.000250
     2.6830      0.000000
     2.6835      0.000000
     2.6840      0.000030
     2.6845      0.000030
     2.6850      0.000000
     2.6855      0.000000
     2.6860      0.000000
     2.6865      0.000040
     2.6870      0.000150
     2.6875      0.000040
     2.6880      0.000000
     2.6885      0.000000
     2.6890      0.000000
     2.6895      0.000330
     2.6900      0.000580
     2.6905      0.000640
     2.6910      0.000570
     2.6915      0.000320
     2.6920      0.000060
     2.6925      0.000010
     2.6930      0.000000
     2.6935      0.000000
     2.6940      0.000000
     2.6945      0.000000
     2.6950      0.000490
     2.6955      0.001050
     2.6960      0.001130
     2.6965      0.000820
     2.6970      0.000540
     2.6975      0.000400
     2.6980      0.000530
     2.6985      0.000690
     2.6990      0.000750
     2.6995      0.000460
     2.7000      0.000170
     2.7005      0.000160
     2.7010      0.000520
     2.7015      0.000820
     2.7020      0.000620
     2.7025      0.000180
     2.7030      0.000030
     2.7035      0.000000
     2.7040      0.000000
     2.7045      0.000000
     2.7050      0.000120
     2.7055      0.000210
     2.7060      0.000280
     2.7065      0.000310
     2.7070      0.000360
     2.7075      0.000300
     2.7080      0.000020
     2.7085      0.000000
     2.7090      0.000000
     2.7095      0.000000
     2.7100      0.000000
     2.7105      0.000000
     2.7110      0.000000
     2.7115      0.000000
     2.7120      0.000170
     2.7125      0.000310
     2.7130      0.000340
     2.7135      0.000120
     2.7140      0.000010
     2.7145      0.000010
     2.7150      0.000090
     2.7155      0.000460
     2.7160      0.000930
     2.7165      0.001380
     2.7170      0.001410
     2.7175      0.001050
     2.7180      0.000340
     2.7185      0.000320
     2.7190      0.000610
     2.7195      0.000880
     2.7200      0.000310
     2.7205      0.000260
     2.7210      0.000520
     2.7215      0.001060
     2.7220      0.001290
     2.7225      0.001470
     2.7230      0.001590
     2.7235      0.001110
     2.7240      0.000560
     2.7245      0.000070
     2.7250      0.000010
     2.7255      0.000000
     2.7260      0.000000
     2.7265      0.000000
     2.7270      0.000000
     2.7275      0.000170
     2.7280      0.000520
     2.7285      0.000720
     2.7290      0.000770
     2.7295      0.000750
     2.7300      0.000900
     2.7305      0.001180
     2.7310      0.001390
     2.7315      0.001300
     2.7320      0.000850
     2.7325      0.000430
     2.7330      0.000170
     2.7335      0.000320
     2.7340      0.000530
     2.7345      0.000760
     2.7350      0.000870
     2.7355      0.000970
     2.7360      0.001030
     2.7365      0.000900
     2.7370      0.000560
     2.7375      0.000330
     2.7380      0.000530
     2.7385      0.001120
     2.7390      0.001360
     2.7395      0.000980
     2.7400      0.000640
     2.7405      0.000510
     2.7410      0.000580
     2.7415      0.000790
     2.7420      0.000810
     2.7425      0.000680
     2.7430      0.000410
     2.7435      0.000650
     2.7440      0.001100
     2.7445      0.001620
     2.7450      0.001590
     2.7455      0.001380
     2.7460      0.001070
     2.7465      0.000770
     2.7470      0.000540
     2.7475      0.000380
     2.7480      0.000520
     2.7485      0.000800
     2.7490      0.001170
     2.7495      0.001110
     2.7500      0.000800
     2.7505      0.000470
     2.7510      0.000830
     2.7515      0.001200
     2.7520      0.001380
     2.7525      0.000960
     2.7530      0.000860
     2.7535      0.000910
     2.7540      0.001120
     2.7545      0.001040
     2.7550      0.001080
     2.7555      0.001360
     2.7560      0.001640
     2.7565      0.001700
     2.7570      0.001520
     2.7575      0.001120
     2.7580      0.000940
     2.7585      0.000970
     2.7590      0.001500
     2.7595      0.001800
     2.7600      0.001870
     2.7605      0.001370
     2.7610      0.001050
     2.7615      0.000890
     2.7620      0.001080
     2.7625      0.000970
     2.7630      0.000750
     2.7635      0.000500
     2.7640      0.000690
     2.7645      0.000980
     2.7650      0.001220
     2.7655      0.001190
     2.7660      0.001200
     2.7665      0.001400
     2.7670      0.001830
     2.7675      0.002150
     2.7680      0.002240
     2.7685      0.001990
     2.7690      0.001720
     2.7695      0.001470
     2.7700      0.001480
     2.7705      0.001650
     2.7710      0.001980
     2.7715      0.002280
     2.7720      0.002360
     2.7725      0.002230
     2.7730      0.001850
     2.7735      0.001660
     2.7740      0.001640
     2.7745      0.001750
     2.7750      0.001590
     2.7755      0.001270
     2.7760      0.001150
     2.7765      0.001450
     2.7770      0.001990
     2.7775      0.002270
     2.7780      0.002480
     2.7785      0.002690
     2.7790      0.003130
     2.7795      0.003280
     2.7800      0.003230
     2.7805      0.002950
     2.7810      0.002770
     2.7815      0.002660
     2.7820      0.002740
     2.7825      0.002990
     2.7830      0.003210
     2.7835      0.002980
     2.7840      0.002700
     2.7845      0.002510
     2.7850      0.002720
     2.7855      0.002580
     2.7860      0.002290
     2.7865      0.001980
     2.7870      0.002210
     2.7875      0.002560
     2.7880      0.002570
     2.7885      0.002470
     2.7890      0.002390
     2.7895      0.002540
     2.7900      0.002700
     2.7905      0.002850
     2.7910      0.002930
     2.7915      0.002920
     2.7920      0.002860
     2.7925      0.002780
     2.7930      0.002810
     2.7935      0.002910
     2.7940      0.003140
     2.7945      0.003360
     2.7950      0.003570
     2.7955      0.003740
     2.7960      0.003880
     2.7965      0.003980
     2.7970      0.003910
     2.7975      0.003830
     2.7980      0.003750
     2.7985      0.003770
     2.7990      0.003720
     2.7995      0.003660
     2.8000      0.003730
     2.8005      0.003990
     2.8010      0.004350
     2.8015      0.004710
     2.8020      0.004840
     2.8025      0.004800
     2.8030      0.004600
     2.8035      0.004360
     2.8040      0.004070
     2.8045      0.003770
     2.8050      0.003850
     2.8055      0.004270
     2.8060      0.004680
     2.8065      0.004630
     2.8070      0.004120
     2.8075      0.004070
     2.8080      0.004380
     2.8085      0.005090
     2.8090      0.005490
     2.8095      0.005770
     2.8100      0.005910
     2.8105      0.005870
     2.8110      0.005730
     2.8115      0.005470
     2.8120      0.005400
     2.8125      0.005410
     2.8130      0.005500
     2.8135      0.005550
     2.8140      0.005630
     2.8145      0.005810
     2.8150      0.005900
     2.8155      0.005900
     2.8160      0.005730
     2.8165      0.005750
     2.8170      0.005910
     2.8175      0.006350
     2.8180      0.006680
     2.8185      0.006940
     2.8190      0.007130
     2.8195      0.007330
     2.8200      0.007550
     2.8205      0.007760
     2.8210      0.008160
     2.8215      0.008740
     2.8220      0.009180
     2.8225      0.009390
     2.8230      0.009310
     2.8235      0.009400
     2.8240      0.009580
     2.8245      0.009890
     2.8250      0.010240
     2.8255      0.010570
     2.8260      0.010840
     2.8265      0.010850
     2.8270      0.010770
     2.8275      0.010720
     2.8280      0.010850
     2.8285      0.011100
     2.8290      0.011520
     2.8295      0.011950
     2.8300      0.012390
     2.8305      0.012550
     2.8310      0.012720
     2.8315      0.012910
     2.8320      0.013320
     2.8325      0.013670
     2.8330      0.013910
     2.8335      0.014330
     2.8340      0.014860
     2.8345      0.015570
     2.8350      0.015930
     2.8355      0.016170
     2.8360      0.016380
     2.8365      0.016810
     2.8370      0.017380
     2.8375      0.018110
     2.8380      0.018870
     2.8385      0.019640
     2.8390      0.020270
     2.8395      0.020860
     2.8400      0.021390
     2.8405      0.021800
     2.8410      0.022230
     2.8415      0.022780
     2.8420      0.023590
     2.8425      0.024480
     2.8430      0.025280
     2.8435      0.025940
     2.8440      0.026530
     2.8445      0.027220
     2.8450      0.028080
     2.8455      0.029070
     2.8460      0.030080
     2.8465      0.031100
     2.8470      0.032140
     2.8475      0.033140
     2.8480      0.034080
     2.8485      0.034880
     2.8490      0.035780
     2.8495      0.036740
     2.8500      0.037780
     2.8505      0.038980
     2.8510      0.040300
     2.8515      0.041990
     2.8520      0.043590
     2.8525      0.045080
     2.8530      0.046660
     2.8535      0.048400
     2.8540      0.050490
     2.8545      0.052530
     2.8550      0.054540
     2.8555      0.056540
     2.8560      0.058740
     2.8565      0.061080
     2.8570      0.063400
     2.8575      0.065800
     2.8580      0.068300
     2.8585      0.071300
     2.8590      0.074350
     2.8595      0.077320
     2.8600      0.080210
     2.8605      0.083140
     2.8610      0.086620
     2.8615      0.090350
     2.8620      0.094280
     2.8625      0.098400
     2.8630      0.102730
     2.8635      0.107370
     2.8640      0.112390
     2.8645      0.117590
     2.8650      0.123080
     2.8655      0.128680
     2.8660      0.134340
     2.8665      0.140110
     2.8670      0.146420
     2.8675      0.153320
     2.8680      0.161030
     2.8685      0.168780
     2.8690      0.176390
     2.8695      0.184250
     2.8700      0.192380
     2.8705      0.201710
     2.8710      0.211400
     2.8715      0.221400
     2.8720      0.231070
     2.8725      0.240950
     2.8730      0.251230
     2.8735      0.262290
     2.8740      0.273610
     2.8745      0.284980
     2.8750      0.296340
     2.8755      0.307690
     2.8760      0.319240
     2.8765      0.330720
     2.8770      0.342070
     2.8775      0.353070
     2.8780      0.363910
     2.8785      0.374480
     2.8790      0.384600
     2.8795      0.394420
     2.8800      0.403200
     2.8805      0.411370
     2.8810      0.418640
     2.8815      0.424330
     2.8820      0.429410
     2.8825      0.433560
     2.8830      0.436800
     2.8835      0.439400
     2.8840      0.439580
     2.8845      0.439140
     2.8850      0.437770
     2.8855      0.435460
     2.8860      0.432580
     2.8865      0.428250
     2.8870      0.423190
     2.8875      0.417580
     2.8880      0.410990
     2.8885      0.404030
     2.8890      0.396470
     2.8895      0.389090
     2.8900      0.381730
     2.8905      0.374220
     2.8910      0.366250
     2.8915      0.357860
     2.8920      0.349450
     2.8925      0.341110
     2.8930      0.332900
     2.8935      0.324790
     2.8940      0.316740
     2.8945      0.309080
     2.8950      0.301480
     2.8955      0.293950
     2.8960      0.286210
     2.8965      0.278620
     2.8970      0.271690
     2.8975      0.265230
     2.8980      0.259080
     2.8985      0.252660
     2.8990      0.246400
     2.8995      0.240450
     2.9000      0.234720
     2.9005      0.229050
     2.9010      0.223410
     2.9015      0.218020
     2.9020      0.212880
     2.9025      0.208090
     2.9030      0.203550
     2.9035      0.199620
     2.9040      0.195760
     2.9045      0.191940
     2.9050      0.187560
     2.9055      0.183340
     2.9060      0.179390
     2.9065      0.176000
     2.9070      0.172810
     2.9075      0.169790
     2.9080      0.166790
     2.9085      0.163820
     2.9090      0.160620
     2.9095      0.157380
     2.9100      0.154140
     2.9105      0.151500
     2.9110      0.149280
     2.9115      0.147230
     2.9120      0.145030
     2.9125      0.142490
     2.9130      0.140190
     2.9135      0.138010
     2.9140      0.136010
     2.9145      0.133950
     2.9150      0.131770
     2.9155      0.129910
     2.9160      0.128250
     2.9165      0.127210
     2.9170      0.126020
     2.9175      0.124670
     2.9180      0.122970
     2.9185      0.121300
     2.9190      0.120020
     2.9195      0.118770
     2.9200      0.117560
     2.9205      0.115860
     2.9210      0.114120
     2.9215      0.112410
     2.9220      0.111210
     2.9225      0.110330
     2.9230      0.109700
     2.9235      0.108940
     2.9240      0.107900
     2.9245      0.106840
     2.9250      0.105770
     2.9255      0.104700
     2.9260      0.103710
     2.9265      0.102890
     2.9270      0.102030
     2.9275      0.101150
     2.9280      0.099930
     2.9285      0.099010
     2.9290      0.098490
     2.9295      0.098250
     2.9300      0.098050
     2.9305      0.097340
     2.9310      0.096620
     2.9315      0.095890
     2.9320      0.095290
     2.9325      0.094670
     2.9330      0.093770
     2.9335      0.092880
     2.9340      0.091990
     2.9345      0.091470
     2.9350      0.091010
     2.9355      0.090480
     2.9360      0.089950
     2.9365      0.089420
     2.9370      0.089250
     2.9375      0.089130
     2.9380      0.088960
     2.9385      0.088750
     2.9390      0.088500
     2.9395      0.088180
     2.9400      0.087810
     2.9405      0.087220
     2.9410      0.086690
     2.9415      0.086210
     2.9420      0.086040
     2.9425      0.085940
     2.9430      0.085910
     2.9435      0.085680
     2.9440      0.085230
     2.9445      0.084750
     2.9450      0.084330
     2.9455      0.084260
     2.9460      0.084140
     2.9465      0.083960
     2.9470      0.083640
     2.9475      0.083320
     2.9480      0.083190
     2.9485      0.083080
     2.9490      0.083020
     2.9495      0.082720
     2.9500      0.082360
     2.9505      0.081990
     2.9510      0.081830
     2.9515      0.081970
     2.9520      0.082160
     2.9525      0.082350
     2.9530      0.082240
     2.9535      0.082050
     2.9540      0.081750
     2.9545      0.081410
     2.9550      0.081060
     2.9555      0.081190
     2.9560      0.081460
     2.9565      0.082060
     2.9570      0.082510
     2.9575      0.082880
     2.9580      0.082770
     2.9585      0.082620
     2.9590      0.082420
     2.9595      0.082470
     2.9600      0.082690
     2.9605      0.082990
     2.9610      0.083240
     2.9615      0.083280
     2.9620      0.083300
     2.9625      0.083290
     2.9630      0.083400
     2.9635      0.083560
     2.9640      0.083900
     2.9645      0.084350
     2.9650      0.084930
     2.9655      0.085520
     2.9660      0.086100
     2.9665      0.086360
     2.9670      0.086500
     2.9675      0.086400
     2.9680      0.086440
     2.9685      0.086550
     2.9690      0.087060
     2.9695      0.087520
     2.9700      0.087730
     2.9705      0.087780
     2.9710      0.087670
     2.9715      0.087660
     2.9720      0.087720
     2.9725      0.088050
     2.9730      0.088600
     2.9735      0.089440
     2.9740      0.090010
     2.9745      0.090480
     2.9750      0.090610
     2.9755      0.090970
     2.9760      0.091860
     2.9765      0.092640
     2.9770      0.093340
     2.9775      0.093370
     2.9780      0.093360
     2.9785      0.093580
     2.9790      0.093930
     2.9795      0.094420
     2.9800      0.094970
     2.9805      0.095560
     2.9810      0.096380
     2.9815      0.097230
     2.9820      0.098130
     2.9825      0.099130
     2.9830      0.100180
     2.9835      0.101000
     2.9840      0.101690
     2.9845      0.101920
     2.9850      0.102290
     2.9855      0.102810
     2.9860      0.103770
     2.9865      0.104870
     2.9870      0.105780
     2.9875      0.106580
     2.9880      0.107100
     2.9885      0.107640
     2.9890      0.108200
     2.9895      0.108990
     2.9900      0.109830
     2.9905      0.110780
     2.9910      0.111750
     2.9915      0.112770
     2.9920      0.114030
     2.9925      0.115400
     2.9930      0.116650
     2.9935      0.117740
     2.9940      0.118310
     2.9945      0.118940
     2.9950      0.119620
     2.9955      0.120780
     2.9960      0.122070
     2.9965      0.123330
     2.9970      0.124500
     2.9975      0.125450
     2.9980      0.126550
     2.9985      0.127770
     2.9990      0.129220
     2.9995      0.130690
     3.0000      0.132050
     3.0005      0.133390
     3.0010      0.134710
     3.0015      0.136000
     3.0020      0.137270
     3.0025      0.138610
     3.0030      0.140020
     3.0035      0.141730
     3.0040      0.143530
     3.0045      0.145440
     3.0050      0.147310
     3.0055      0.149180
     3.0060      0.150830
     3.0065      0.152460
     3.0070      0.154040
     3.0075      0.155750
     3.0080      0.157610
     3.0085      0.159470
     3.0090      0.161320
     3.0095      0.163060
     3.0100      0.164890
     3.0105      0.167040
     3.0110      0.169200
     3.0115      0.171350
     3.0120      0.173200
     3.0125      0.174930
     3.0130      0.176890
     3.0135      0.178960
     3.0140      0.181380
     3.0145      0.183840
     3.0150      0.186350
     3.0155      0.188780
     3.0160      0.191180
     3.0165      0.193750
     3.0170      0.196340
     3.0175      0.198990
     3.0180      0.201530
     3.0185      0.203910
     3.0190      0.206590
     3.0195      0.209400
     3.0200      0.212520
     3.0205      0.215620
     3.0210      0.218550
     3.0215      0.221430
     3.0220      0.224230
     3.0225      0.226910
     3.0230      0.229530
     3.0235      0.232630
     3.0240      0.235820
     3.0245      0.239190
     3.0250      0.242500
     3.0255      0.245680
     3.0260      0.249280
     3.0265      0.253180
     3.0270      0.256960
     3.0275      0.260690
     3.0280      0.263890
     3.0285      0.267270
     3.0290      0.271090
     3.0295      0.275090
     3.0300      0.279250
     3.0305      0.283310
     3.0310      0.287320
     3.0315      0.291320
     3.0320      0.295310
     3.0325      0.299240
     3.0330      0.303150
     3.0335      0.307050
     3.0340      0.311180
     3.0345      0.315440
     3.0350      0.320340
     3.0355      0.325320
     3.0360      0.330310
     3.0365      0.335120
     3.0370      0.339580
     3.0375      0.344200
     3.0380      0.348950
     3.0385      0.353990
     3.0390      0.359100
     3.0395      0.363810
     3.0400      0.368490
     3.0405      0.373090
     3.0410      0.377830
     3.0415      0.382750
     3.0420      0.387660
     3.0425      0.392570
     3.0430      0.397680
     3.0435      0.402860
     3.0440      0.408590
     3.0445      0.414250
     3.0450      0.419780
     3.0455      0.425040
     3.0460      0.430040
     3.0465      0.435380
     3.0470      0.440880
     3.0475      0.446540
     3.0480      0.452130
     3.0485      0.457110
     3.0490      0.462110
     3.0495      0.467140
     3.0500      0.472430
     3.0505      0.477940
     3.0510      0.483490
     3.0515      0.489060
     3.0520      0.494450
     3.0525      0.499790
     3.0530      0.504850
     3.0535      0.509780
     3.0540      0.514470
     3.0545      0.518990
     3.0550      0.523360
     3.0555      0.527950
     3.0560      0.532610
     3.0565      0.537580
     3.0570      0.542480
     3.0575      0.546990
     3.0580      0.551340
     3.0585      0.555430
     3.0590      0.559490
     3.0595      0.563530
     3.0600      0.567400
     3.0605      0.571210
     3.0610      0.574520
     3.0615      0.577790
     3.0620      0.580940
     3.0625      0.584080
     3.0630      0.587160
     3.0635      0.589940
     3.0640      0.592420
     3.0645      0.594980
     3.0650      0.597580
     3.0655      0.600140
     3.0660      0.602610
     3.0665      0.604150
     3.0670      0.605650
     3.0675      0.607080
     3.0680      0.608570
     3.0685      0.610150
     3.0690      0.611320
     3.0695      0.612240
     3.0700      0.612660
     3.0705      0.612970
     3.0710      0.613210
     3.0715      0.613520
     3.0720      0.614110
     3.0725      0.614560
     3.0730      0.614740
     3.0735      0.614420
     3.0740      0.613680
     3.0745      0.612630
     3.0750      0.611460
     3.0755      0.610050
     3.0760      0.608620
     3.0765      0.607270
     3.0770      0.605920
     3.0775      0.604540
     3.0780      0.602950
     3.0785      0.601080
     3.0790      0.598910
     3.0795      0.596530
     3.0800      0.593780
     3.0805      0.590910
     3.0810      0.588490
     3.0815      0.586160
     3.0820      0.584420
     3.0825      0.582550
     3.0830      0.580330
     3.0835      0.577800
     3.0840      0.574870
     3.0845      0.571570
     3.0850      0.568020
     3.0855      0.564470
     3.0860      0.560910
     3.0865      0.557890
     3.0870      0.554910
     3.0875      0.551910
     3.0880      0.548780
     3.0885      0.545250
     3.0890      0.541680
     3.0895      0.538070
     3.0900      0.534550
     3.0905      0.531090
     3.0910      0.527250
     3.0915      0.523270
     3.0920      0.519400
     3.0925      0.515580
     3.0930      0.512370
     3.0935      0.509080
     3.0940      0.505500
     3.0945      0.501760
     3.0950      0.497750
     3.0955      0.493770
     3.0960      0.489810
     3.0965      0.485960
     3.0970      0.482180
     3.0975      0.478620
     3.0980      0.475110
     3.0985      0.471670
     3.0990      0.468230
     3.0995      0.464690
     3.1000      0.461160
     3.1005      0.457640
     3.1010      0.454120
     3.1015      0.450580
     3.1020      0.446940
     3.1025      0.443200
     3.1030      0.439710
     3.1035      0.436340
     3.1040      0.433440
     3.1045      0.430640
     3.1050      0.427470
     3.1055      0.424230
     3.1060      0.420470
     3.1065      0.416790
     3.1070      0.413340
     3.1075      0.410030
     3.1080      0.406940
     3.1085      0.403740
     3.1090      0.400450
     3.1095      0.397160
     3.1100      0.393870
     3.1105      0.390710
     3.1110      0.387590
     3.1115      0.384650
     3.1120      0.381750
     3.1125      0.379100
     3.1130      0.376390
     3.1135      0.373460
     3.1140      0.370460
     3.1145      0.367300
     3.1150      0.364240
     3.1155      0.361290
     3.1160      0.358510
     3.1165      0.355850
     3.1170      0.353420
     3.1175      0.351100
     3.1180      0.348670
     3.1185      0.346210
     3.1190      0.343650
     3.1195      0.341120
     3.1200      0.339060
     3.1205      0.337030
     3.1210      0.335060
     3.1215      0.332980
     3.1220      0.330690
     3.1225      0.328380
     3.1230      0.326040
     3.1235      0.323630
     3.1240      0.321160
     3.1245      0.318840
     3.1250      0.316590
     3.1255      0.314760
     3.1260      0.313030
     3.1265      0.311310
     3.1270      0.309570
     3.1275      0.307510
     3.1280      0.305440
     3.1285      0.303250
     3.1290      0.301100
     3.1295      0.299080
     3.1300      0.297200
     3.1305      0.295590
     3.1310      0.294110
     3.1315      0.292790
     3.1320      0.291250
     3.1325      0.289560
     3.1330      0.287600
     3.1335      0.285520
     3.1340      0.283850
     3.1345      0.282280
     3.1350      0.280850
     3.1355      0.279430
     3.1360      0.277530
     3.1365      0.275640
     3.1370      0.273860
     3.1375      0.272200
     3.1380      0.270970
     3.1385      0.269790
     3.1390      0.268730
     3.1395      0.267520
     3.1400      0.266100
     3.1405      0.264620
     3.1410      0.263080
     3.1415      0.261900
     3.1420      0.260950
     3.1425      0.259980
     3.1430      0.258990
     3.1435      0.257430
     3.1440      0.255720
     3.1445      0.254080
     3.1450      0.252450
     3.1455      0.251380
     3.1460      0.250330
     3.1465      0.249340
     3.1470      0.248360
     3.1475      0.247440
     3.1480      0.246580
     3.1485      0.245880
     3.1490      0.245000
     3.1495      0.243780
     3.1500      0.242370
     3.1505      0.240730
     3.1510      0.239400
     3.1515      0.238370
     3.1520      0.237410
     3.1525      0.236500
     3.1530      0.235540
     3.1535      0.234560
     3.1540      0.233870
     3.1545      0.233270
     3.1550      0.232380
     3.1555      0.231440
     3.1560      0.230360
     3.1565      0.229270
     3.1570      0.228320
     3.1575      0.227350
     3.1580      0.226240
     3.1585      0.225180
     3.1590      0.224380
     3.1595      0.223570
     3.1600      0.222730
     3.1605      0.221830
     3.1610      0.220830
     3.1615      0.219980
     3.1620      0.219390
     3.1625      0.218650
     3.1630      0.217740
     3.1635      0.216700
     3.1640      0.215550
     3.1645      0.214850
     3.1650      0.214460
     3.1655      0.214040
     3.1660      0.213590
     3.1665      0.212690
     3.1670      0.211620
     3.1675      0.210790
     3.1680      0.210020
     3.1685      0.209360
     3.1690      0.208710
     3.1695      0.207850
     3.1700      0.206970
     3.1705      0.206250
     3.1710      0.205550
     3.1715      0.204920
     3.1720      0.204270
     3.1725      0.203400
     3.1730      0.202490
     3.1735      0.201390
     3.1740      0.200410
     3.1745      0.199860
     3.1750      0.199490
     3.1755      0.199540
     3.1760      0.199360
     3.1765      0.198730
     3.1770      0.197940
     3.1775      0.196900
     3.1780      0.196140
     3.1785      0.195720
     3.1790      0.195330
     3.1795      0.194980
     3.1800      0.194390
     3.1805      0.193620
     3.1810      0.192830
     3.1815      0.192010
     3.1820      0.191260
     3.1825      0.190540
     3.1830      0.189920
     3.1835      0.189350
     3.1840      0.188860
     3.1845      0.188400
     3.1850      0.187840
     3.1855      0.187250
     3.1860      0.186590
     3.1865      0.185920
     3.1870      0.185350
     3.1875      0.184810
     3.1880      0.184530
     3.1885      0.184280
     3.1890      0.184120
     3.1895      0.183960
     3.1900      0.183390
     3.1905      0.182800
     3.1910      0.181890
     3.1915      0.180970
     3.1920      0.180040
     3.1925      0.179130
     3.1930      0.178400
     3.1935      0.177720
     3.1940      0.177390
     3.1945      0.177070
     3.1950      0.176740
     3.1955      0.176330
     3.1960      0.175640
     3.1965      0.174990
     3.1970      0.174520
     3.1975      0.174130
     3.1980      0.173960
     3.1985      0.173730
     3.1990      0.173340
     3.1995      0.172940
     3.2000      0.172470
     3.2005      0.171920
     3.2010      0.171170
     3.2015      0.170350
     3.2020      0.169360
     3.2025      0.168540
     3.2030      0.167990
     3.2035      0.167600
     3.2040      0.167430
     3.2045      0.167190
     3.2050      0.166870
     3.2055      0.166390
     3.2060      0.165720
     3.2065      0.165080
     3.2070      0.164490
     3.2075      0.163890
     3.2080      0.163290
     3.2085      0.162660
     3.2090      0.161990
     3.2095      0.161440
     3.2100      0.161020
     3.2105      0.160520
     3.2110      0.159950
     3.2115      0.159450
     3.2120      0.159030
     3.2125      0.158670
     3.2130      0.158370
     3.2135      0.157860
     3.2140      0.157170
     3.2145      0.156630
     3.2150      0.156190
     3.2155      0.155930
     3.2160      0.155800
     3.2165      0.155520
     3.2170      0.155140
     3.2175      0.154620
     3.2180      0.154010
     3.2185      0.153490
     3.2190      0.153040
     3.2195      0.152750
     3.2200      0.152590
     3.2205      0.152250
     3.2210      0.151800
     3.2215      0.151130
     3.2220      0.150310
     3.2225      0.149590
     3.2230      0.148960
     3.2235      0.148520
     3.2240      0.148240
     3.2245      0.147900
     3.2250      0.147510
     3.2255      0.147010
     3.2260      0.146420
     3.2265      0.146040
     3.2270      0.145820
     3.2275      0.145660
     3.2280      0.145550
     3.2285      0.145240
     3.2290      0.144760
     3.2295      0.144240
     3.2300      0.143660
     3.2305      0.143190
     3.2310      0.142820
     3.2315      0.142470
     3.2320      0.142140
     3.2325      0.141680
     3.2330      0.141080
     3.2335      0.140690
     3.2340      0.140520
     3.2345      0.140500
     3.2350      0.140670
     3.2355      0.140500
     3.2360      0.139880
     3.2365      0.139150
     3.2370      0.138280
     3.2375      0.137590
     3.2380      0.137170
     3.2385      0.136730
     3.2390      0.136260
     3.2395      0.135770
     3.2400      0.135270
     3.2405      0.134790
     3.2410      0.134340
     3.2415      0.133830
     3.2420      0.133150
     3.2425      0.132530
     3.2430      0.132010
     3.2435      0.131570
     3.2440      0.131360
     3.2445      0.131180
     3.2450      0.131130
     3.2455      0.131110
     3.2460      0.131230
     3.2465      0.131300
     3.2470      0.131010
     3.2475      0.130700
     3.2480      0.130130
     3.2485      0.129590
     3.2490      0.129320
     3.2495      0.129040
     3.2500      0.128750
     3.2505      0.128470
     3.2510      0.128230
     3.2515      0.127990
     3.2520      0.127900
     3.2525      0.127810
     3.2530      0.127430
     3.2535      0.127030
     3.2540      0.126550
     3.2545      0.126060
     3.2550      0.125930
     3.2555      0.125870
     3.2560      0.125800
     3.2565      0.125720
     3.2570      0.125480
     3.2575      0.125200
     3.2580      0.125040
     3.2585      0.124940
     3.2590      0.124930
     3.2595      0.124970
     3.2600      0.124990
     3.2605      0.125010
     3.2610      0.124790
     3.2615      0.124390
     3.2620      0.124000
     3.2625      0.123630
     3.2630      0.123560
     3.2635      0.123820
     3.2640      0.123980
     3.2645      0.123980
     3.2650      0.123910
     3.2655      0.123680
     3.2660      0.123490
     3.2665      0.123360
     3.2670      0.123140
     3.2675      0.122590
     3.2680      0.122090
     3.2685      0.121780
     3.2690      0.121550
     3.2695      0.121810
     3.2700      0.122060
     3.2705      0.122100
     3.2710      0.122150
     3.2715      0.121970
     3.2720      0.121790
     3.2725      0.121600
     3.2730      0.121410
     3.2735      0.120990
     3.2740      0.120550
     3.2745      0.120220
     3.2750      0.119920
     3.2755      0.120000
     3.2760      0.120210
     3.2765      0.120420
     3.2770      0.120620
     3.2775      0.120760
     3.2780      0.120860
     3.2785      0.120860
     3.2790      0.120790
     3.2795      0.120580
     3.2800      0.120190
     3.2805      0.119920
     3.2810      0.119870
     3.2815      0.119900
     3.2820      0.120130
     3.2825      0.120300
     3.2830      0.120270
     3.2835      0.120240
     3.2840      0.120230
     3.2845      0.120230
     3.2850      0.120500
     3.2855      0.120770
     3.2860      0.121120
     3.2865      0.121460
     3.2870      0.121590
     3.2875      0.121690
     3.2880      0.121650
     3.2885      0.121570
     3.2890      0.121600
     3.2895      0.121660
     3.2900      0.121790
     3.2905      0.121970
     3.2910      0.122060
     3.2915      0.122080
     3.2920      0.121960
     3.2925      0.121670
     3.2930      0.121430
     3.2935      0.121280
     3.2940      0.121240
     3.2945      0.121520
     3.2950      0.121810
     3.2955      0.122180
     3.2960      0.122530
     3.2965      0.122660
     3.2970      0.122780
     3.2975      0.122770
     3.2980      0.122750
     3.2985      0.122980
     3.2990      0.123230
     3.2995      0.123680
     3.3000      0.124170
     3.3005      0.124560
     3.3010      0.124900
     3.3015      0.124960
     3.3020      0.124830
     3.3025      0.124660
     3.3030      0.124460
     3.3035      0.124580
     3.3040      0.125170
     3.3045      0.125780
     3.3050      0.126410
     3.3055      0.126960
     3.3060      0.127100
     3.3065      0.127260
     3.3070      0.127740
     3.3075      0.128220
     3.3080      0.128630
     3.3085      0.129040
     3.3090      0.129100
     3.3095      0.129090
     3.3100      0.129190
     3.3105      0.129320
     3.3110      0.129490
     3.3115      0.129670
     3.3120      0.129920
     3.3125      0.130220
     3.3130      0.130580
     3.3135      0.131060
     3.3140      0.131490
     3.3145      0.131780
     3.3150      0.132070
     3.3155      0.132310
     3.3160      0.132560
     3.3165      0.132920
     3.3170      0.133290
     3.3175      0.133770
     3.3180      0.134260
     3.3185      0.134750
     3.3190      0.135250
     3.3195      0.135440
     3.3200      0.135470
     3.3205      0.135590
     3.3210      0.135790
     3.3215      0.136260
     3.3220      0.137150
     3.3225      0.137920
     3.3230      0.138440
     3.3235      0.138890
     3.3240      0.138980
     3.3245      0.139080
     3.3250      0.139450
     3.3255      0.139820
     3.3260      0.140290
     3.3265      0.140780
     3.3270      0.141250
     3.3275      0.141710
     3.3280      0.142090
     3.3285      0.142410
     3.3290      0.142660
     3.3295      0.142860
     3.3300      0.143160
     3.3305      0.143660
     3.3310      0.144170
     3.3315      0.144690
     3.3320      0.145180
     3.3325      0.145290
     3.3330      0.145400
     3.3335      0.145790
     3.3340      0.146210
     3.3345      0.147110
     3.3350      0.148140
     3.3355      0.149110
     3.3360      0.150040
     3.3365      0.150900
     3.3370      0.151690
     3.3375      0.152510
     3.3380      0.153390
     3.3385      0.154190
     3.3390      0.154700
     3.3395      0.155180
     3.3400      0.155210
     3.3405      0.155230
     3.3410      0.155470
     3.3415      0.155740
     3.3420      0.156450
     3.3425      0.157320
     3.3430      0.158250
     3.3435      0.159230
     3.3440      0.160050
     3.3445      0.160670
     3.3450      0.161320
     3.3455      0.162050
     3.3460      0.162810
     3.3465      0.163920
     3.3470      0.165030
     3.3475      0.165650
     3.3480      0.166240
     3.3485      0.166410
     3.3490      0.166470
     3.3495      0.166880
     3.3500      0.167490
     3.3505      0.168250
     3.3510      0.169180
     3.3515      0.170040
     3.3520      0.170710
     3.3525      0.171410
     3.3530      0.172210
     3.3535      0.173020
     3.3540      0.173960
     3.3545      0.174910
     3.3550      0.175640
     3.3555      0.176320
     3.3560      0.177090
     3.3565      0.177920
     3.3570      0.178920
     3.3575      0.180120
     3.3580      0.181250
     3.3585      0.182200
     3.3590      0.183140
     3.3595      0.183990
     3.3600      0.184850
     3.3605      0.185890
     3.3610      0.186940
     3.3615      0.187750
     3.3620      0.188480
     3.3625      0.189180
     3.3630      0.189850
     3.3635      0.190690
     3.3640      0.191800
     3.3645      0.192890
     3.3650      0.193960
     3.3655      0.195030
     3.3660      0.196070
     3.3665      0.197120
     3.3670      0.198300
     3.3675      0.199510
     3.3680      0.200420
     3.3685      0.201160
     3.3690      0.201780
     3.3695      0.202240
     3.3700      0.202820
     3.3705      0.203750
     3.3710      0.204700
     3.3715      0.205940
     3.3720      0.207190
     3.3725      0.208380
     3.3730      0.209560
     3.3735      0.210760
     3.3740      0.211960
     3.3745      0.213280
     3.3750      0.214700
     3.3755      0.216100
     3.3760      0.217460
     3.3765      0.218790
     3.3770      0.219900
     3.3775      0.221000
     3.3780      0.222090
     3.3785      0.223170
     3.3790      0.224230
     3.3795      0.225270
     3.3800      0.226420
     3.3805      0.227680
     3.3810      0.228960
     3.3815      0.230310
     3.3820      0.231640
     3.3825      0.232850
     3.3830      0.234050
     3.3835      0.235380
     3.3840      0.236730
     3.3845      0.238030
     3.3850      0.239300
     3.3855      0.240570
     3.3860      0.241830
     3.3865      0.243120
     3.3870      0.244500
     3.3875      0.245880
     3.3880      0.247190
     3.3885      0.248490
     3.3890      0.249960
     3.3895      0.251460
     3.3900      0.253040
     3.3905      0.254660
     3.3910      0.256150
     3.3915      0.257430
     3.3920      0.258680
     3.3925      0.259760
     3.3930      0.260850
     3.3935      0.262350
     3.3940      0.263880
     3.3945      0.265660
     3.3950      0.267520
     3.3955      0.269140
     3.3960      0.270540
     3.3965      0.271900
     3.3970      0.273190
     3.3975      0.274520
     3.3980      0.276290
     3.3985      0.278070
     3.3990      0.279940
     3.3995      0.281830
     3.4000      0.283670
     3.4005      0.285470
     3.4010      0.287230
     3.4015      0.288900
     3.4020      0.290530
     3.4025      0.291870
     3.4030      0.293220
     3.4035      0.294720
     3.4040      0.296230
     3.4045      0.298110
     3.4050      0.300170
     3.4055      0.302070
     3.4060      0.303770
     3.4065      0.305380
     3.4070      0.306590
     3.4075      0.307810
     3.4080      0.309600
     3.4085      0.311400
     3.4090      0.313450
     3.4095      0.315600
     3.4100      0.317490
     3.4105      0.319080
     3.4110      0.320690
     3.4115      0.322290
     3.4120      0.323890
     3.4125      0.326090
     3.4130      0.328300
     3.4135      0.330370
     3.4140      0.332390
     3.4145      0.334220
     3.4150      0.335870
     3.4155      0.337560
     3.4160      0.339380
     3.4165      0.341200
     3.4170      0.343090
     3.4175      0.344970
     3.4180      0.346790
     3.4185      0.348580
     3.4190      0.350300
     3.4195      0.351940
     3.4200      0.353630
     3.4205      0.355490
     3.4210      0.357350
     3.4215      0.359860
     3.4220      0.362390
     3.4225      0.364960
     3.4230      0.367540
     3.4235      0.369850
     3.4240      0.371850
     3.4245      0.373830
     3.4250      0.375690
     3.4255      0.377550
     3.4260      0.379820
     3.4265      0.382120
     3.4270      0.384430
     3.4275      0.386740
     3.4280      0.388980
     3.4285      0.391130
     3.4290      0.393280
     3.4295      0.395430
     3.4300      0.397590
     3.4305      0.399390
     3.4310      0.401140
     3.4315      0.402950
     3.4320      0.404790
     3.4325      0.406770
     3.4330      0.409020
     3.4335      0.411250
     3.4340      0.413340
     3.4345      0.415430
     3.4350      0.417530
     3.4355      0.419630
     3.4360      0.421820
     3.4365      0.424110
     3.4370      0.426360
     3.4375      0.428480
     3.4380      0.430600
     3.4385      0.432450
     3.4390      0.434290
     3.4395      0.436340
     3.4400      0.438500
     3.4405      0.440800
     3.4410      0.443330
     3.4415      0.445820
     3.4420      0.448000
     3.4425      0.450170
     3.4430      0.451780
     3.4435      0.453260
     3.4440      0.454640
     3.4445      0.455920
     3.4450      0.457440
     3.4455      0.459670
     3.4460      0.461900
     3.4465      0.464260
     3.4470      0.466620
     3.4475      0.468460
     3.4480      0.470050
     3.4485      0.471780
     3.4490      0.473730
     3.4495      0.475700
     3.4500      0.477810
     3.4505      0.479910
     3.4510      0.481850
     3.4515      0.483730
     3.4520      0.485610
     3.4525      0.487510
     3.4530      0.489390
     3.4535      0.491190
     3.4540      0.492990
     3.4545      0.494790
     3.4550      0.496590
     3.4555      0.498260
     3.4560      0.499840
     3.4565      0.501450
     3.4570      0.503140
     3.4575      0.504820
     3.4580      0.506280
     3.4585      0.507740
     3.4590      0.508930
     3.4595      0.510000
     3.4600      0.511190
     3.4605      0.512610
     3.4610      0.514020
     3.4615      0.515420
     3.4620      0.516830
     3.4625      0.518420
     3.4630      0.520080
     3.4635      0.521730
     3.4640      0.523350
     3.4645      0.524920
     3.4650      0.526030
     3.4655      0.527130
     3.4660      0.528390
     3.4665      0.529680
     3.4670      0.530570
     3.4675      0.531020
     3.4680      0.531420
     3.4685      0.531470
     3.4690      0.531520
     3.4695      0.532570
     3.4700      0.533800
     3.4705      0.534970
     3.4710      0.536090
     3.4715      0.537060
     3.4720      0.537370
     3.4725      0.537680
     3.4730      0.538220
     3.4735      0.538800
     3.4740      0.539640
     3.4745      0.540690
     3.4750      0.541600
     3.4755      0.541970
     3.4760      0.542340
     3.4765      0.542220
     3.4770      0.542030
     3.4775      0.542350
     3.4780      0.543090
     3.4785      0.543830
     3.4790      0.544530
     3.4795      0.545230
     3.4800      0.544840
     3.4805      0.544310
     3.4810      0.543570
     3.4815      0.542660
     3.4820      0.541780
     3.4825      0.541040
     3.4830      0.540290
     3.4835      0.539830
     3.4840      0.539410
     3.4845      0.538970
     3.4850      0.538510
     3.4855      0.538060
     3.4860      0.537640
     3.4865      0.537220
     3.4870      0.537000
     3.4875      0.536830
     3.4880      0.536320
     3.4885      0.535470
     3.4890      0.534640
     3.4895      0.533850
     3.4900      0.533050
     3.4905      0.532650
     3.4910      0.532350
     3.4915      0.531760
     3.4920      0.530850
     3.4925      0.529930
     3.4930      0.529030
     3.4935      0.528130
     3.4940      0.527190
     3.4945      0.526230
     3.4950      0.525110
     3.4955      0.523770
     3.4960      0.522450
     3.4965      0.521810
     3.4970      0.521170
     3.4975      0.520430
     3.4980      0.519640
     3.4985      0.518500
     3.4990      0.516600
     3.4995      0.514700
     3.5000      0.512200
     3.5005      0.509670
     3.5010      0.507480
     3.5015      0.505520
     3.5020      0.503990
     3.5025      0.503870
     3.5030      0.503760
     3.5035      0.503280
     3.5040      0.502750
     3.5045      0.501190
     3.5050      0.498590
     3.5055      0.496020
     3.5060      0.493700
     3.5065      0.491390
     3.5070      0.489490
     3.5075      0.487730
     3.5080      0.485870
     3.5085      0.483850
     3.5090      0.481830
     3.5095      0.480190
     3.5100      0.478550
     3.5105      0.476970
     3.5110      0.475420
     3.5115      0.473810
     3.5120      0.472050
     3.5125      0.470300
     3.5130      0.468440
     3.5135      0.466560
     3.5140      0.464400
     3.5145      0.461960
     3.5150      0.459510
     3.5155      0.457060
     3.5160      0.454600
     3.5165      0.452480
     3.5170      0.450470
     3.5175      0.448410
     3.5180      0.446210
     3.5185      0.444020
     3.5190      0.441910
     3.5195      0.439810
     3.5200      0.437470
     3.5205      0.434950
     3.5210      0.432350
     3.5215      0.429450
     3.5220      0.426540
     3.5225      0.424890
     3.5230      0.423580
     3.5235      0.422590
     3.5240      0.422100
     3.5245      0.421610
     3.5250      0.420310
     3.5255      0.419000
     3.5260      0.417370
     3.5265      0.415530
     3.5270      0.413640
     3.5275      0.411550
     3.5280      0.409450
     3.5285      0.406790
     3.5290      0.403990
     3.5295      0.401020
     3.5300      0.397790
     3.5305      0.394560
     3.5310      0.392470
     3.5315      0.390370
     3.5320      0.388750
     3.5325      0.387440
     3.5330      0.386250
     3.5335      0.385560
     3.5340      0.384860
     3.5345      0.384250
     3.5350      0.383670
     3.5355      0.382410
     3.5360      0.380020
     3.5365      0.377620
     3.5370      0.375070
     3.5375      0.372520
     3.5380      0.370420
     3.5385      0.368690
     3.5390      0.366940
     3.5395      0.364990
     3.5400      0.363050
     3.5405      0.360840
     3.5410      0.358530
     3.5415      0.356160
     3.5420      0.353620
     3.5425      0.351080
     3.5430      0.349320
     3.5435      0.347660
     3.5440      0.345960
     3.5445      0.344220
     3.5450      0.342460
     3.5455      0.340200
     3.5460      0.337950
     3.5465      0.336190
     3.5470      0.334740
     3.5475      0.333300
     3.5480      0.331850
     3.5485      0.330400
     3.5490      0.328990
     3.5495      0.327590
     3.5500      0.326220
     3.5505      0.324920
     3.5510      0.323610
     3.5515      0.322390
     3.5520      0.321180
     3.5525      0.320120
     3.5530      0.319250
     3.5535      0.318360
     3.5540      0.316550
     3.5545      0.314740
     3.5550      0.312640
     3.5555      0.310320
     3.5560      0.308090
     3.5565      0.306310
     3.5570      0.304540
     3.5575      0.303720
     3.5580      0.303280
     3.5585      0.303010
     3.5590      0.303160
     3.5595      0.303310
     3.5600      0.301880
     3.5605      0.300110
     3.5610      0.298000
     3.5615      0.295350
     3.5620      0.292700
     3.5625      0.290900
     3.5630      0.289160
     3.5635      0.287850
     3.5640      0.287010
     3.5645      0.286160
     3.5650      0.285030
     3.5655      0.283900
     3.5660      0.282140
     3.5665      0.279930
     3.5670      0.277720
     3.5675      0.275520
     3.5680      0.273310
     3.5685      0.271400
     3.5690      0.269630
     3.5695      0.268250
     3.5700      0.268250
     3.5705      0.268260
     3.5710      0.268360
     3.5715      0.268500
