# author : Oliver Czoske
# source : Ester Aranzana
# date_created : 2017-11-20
# date_modified: 2025-12-16
# status: Measured at 80 K
# wavelength_unit : um
# changes :
# - 2022-03-17 (KL) Updated to match Rics email
# - 2023-06-06 (RD) Modified profiles after discussion with Schott
# - 2025-06-15 (FH) Updated filter curve based on Ric's email.
# - 2025-12-16 (OC) Replaced with measured values
#
 wavelength  transmission
     0.4990      0.001500
     0.4995      0.001500
     0.5000      0.002270
     0.5005      0.007940
     0.5010      0.009130
     0.5015      0.007250
     0.5020      0.001360
     0.5025      0.000000
     0.5030      0.000000
     0.5035      0.000000
     0.5040      0.000000
     0.5045      0.010260
     0.5050      0.003000
     0.5055      0.003660
     0.5060      0.000140
     0.5065      0.000140
     0.5070      0.000000
     0.5075      0.002550
     0.5080      0.000210
     0.5085      0.001220
     0.5090      0.004950
     0.5095      0.000220
     0.5100      0.000000
     0.5105      0.003100
     0.5110      0.002080
     0.5115      0.000000
     0.5120      0.000000
     0.5125      0.000060
     0.5130      0.000000
     0.5135      0.005220
     0.5140      0.001260
     0.5145      0.000500
     0.5150      0.003700
     0.5155      0.003600
     0.5160      0.000960
     0.5165      0.001490
     0.5170      0.000640
     0.5175      0.006930
     0.5180      0.008410
     0.5185      0.000000
     0.5190      0.004500
     0.5195      0.004770
     0.5200      0.000000
     0.5205      0.007910
     0.5210      0.000000
     0.5215      0.000320
     0.5220      0.000000
     0.5225      0.003100
     0.5230      0.000000
     0.5235      0.003680
     0.5240      0.000000
     0.5245      0.000630
     0.5250      0.000000
     0.5255      0.000350
     0.5260      0.001190
     0.5265      0.000000
     0.5270      0.001080
     0.5275      0.002780
     0.5280      0.000000
     0.5285      0.000000
     0.5290      0.001140
     0.5295      0.000000
     0.5300      0.000000
     0.5305      0.000260
     0.5310      0.002840
     0.5315      0.000020
     0.5320      0.000790
     0.5325      0.002770
     0.5330      0.000360
     0.5335      0.002190
     0.5340      0.000620
     0.5345      0.000970
     0.5350      0.002460
     0.5355      0.000000
     0.5360      0.003940
     0.5365      0.002170
     0.5370      0.005720
     0.5375      0.001420
     0.5380      0.000420
     0.5385      0.000000
     0.5390      0.000050
     0.5395      0.000000
     0.5400      0.003270
     0.5405      0.000600
     0.5410      0.000060
     0.5415      0.001610
     0.5420      0.000000
     0.5425      0.000810
     0.5430      0.000110
     0.5435      0.001360
     0.5440      0.001500
     0.5445      0.000530
     0.5450      0.001550
     0.5455      0.000140
     0.5460      0.000050
     0.5465      0.000120
     0.5470      0.000820
     0.5475      0.000000
     0.5480      0.000860
     0.5485      0.000040
     0.5490      0.001810
     0.5495      0.000000
     0.5500      0.000100
     0.5505      0.001930
     0.5510      0.002290
     0.5515      0.000000
     0.5520      0.001700
     0.5525      0.000180
     0.5530      0.001300
     0.5535      0.000290
     0.5540      0.000000
     0.5545      0.001480
     0.5550      0.000010
     0.5555      0.000470
     0.5560      0.000290
     0.5565      0.000000
     0.5570      0.001030
     0.5575      0.001300
     0.5580      0.000000
     0.5585      0.001160
     0.5590      0.000000
     0.5595      0.000470
     0.5600      0.000000
     0.5605      0.000290
     0.5610      0.000000
     0.5615      0.000000
     0.5620      0.001720
     0.5625      0.000000
     0.5630      0.000860
     0.5635      0.001700
     0.5640      0.000000
     0.5645      0.000950
     0.5650      0.000140
     0.5655      0.000000
     0.5660      0.000000
     0.5665      0.001010
     0.5670      0.000530
     0.5675      0.000240
     0.5680      0.000000
     0.5685      0.000220
     0.5690      0.000540
     0.5695      0.000920
     0.5700      0.000750
     0.5705      0.000280
     0.5710      0.000710
     0.5715      0.000240
     0.5720      0.000000
     0.5725      0.000490
     0.5730      0.000480
     0.5735      0.000000
     0.5740      0.000000
     0.5745      0.000610
     0.5750      0.000000
     0.5755      0.000040
     0.5760      0.000000
     0.5765      0.000560
     0.5770      0.000770
     0.5775      0.000040
     0.5780      0.000350
     0.5785      0.000320
     0.5790      0.000000
     0.5795      0.000140
     0.5800      0.000000
     0.5805      0.000630
     0.5810      0.000400
     0.5815      0.000880
     0.5820      0.000120
     0.5825      0.000420
     0.5830      0.000360
     0.5835      0.000400
     0.5840      0.000330
     0.5845      0.000570
     0.5850      0.000000
     0.5855      0.000210
     0.5860      0.000030
     0.5865      0.000230
     0.5870      0.000030
     0.5875      0.000090
     0.5880      0.000400
     0.5885      0.000070
     0.5890      0.000000
     0.5895      0.000000
     0.5900      0.000190
     0.5905      0.000580
     0.5910      0.000420
     0.5915      0.000180
     0.5920      0.000000
     0.5925      0.000000
     0.5930      0.000000
     0.5935      0.000220
     0.5940      0.000160
     0.5945      0.000420
     0.5950      0.000000
     0.5955      0.000290
     0.5960      0.000000
     0.5965      0.000260
     0.5970      0.000130
     0.5975      0.000180
     0.5980      0.000000
     0.5985      0.000120
     0.5990      0.000000
     0.5995      0.000500
     0.6000      0.000500
     0.6005      0.000210
     0.6010      0.000010
     0.6015      0.000030
     0.6020      0.000000
     0.6025      0.000000
     0.6030      0.000030
     0.6035      0.000020
     0.6040      0.000120
     0.6045      0.000000
     0.6050      0.000170
     0.6055      0.000410
     0.6060      0.000200
     0.6065      0.000210
     0.6070      0.000020
     0.6075      0.000000
     0.6080      0.000150
     0.6085      0.000330
     0.6090      0.000470
     0.6095      0.000090
     0.6100      0.000300
     0.6105      0.000380
     0.6110      0.000000
     0.6115      0.000140
     0.6120      0.000460
     0.6125      0.000020
     0.6130      0.000010
     0.6135      0.000010
     0.6140      0.000370
     0.6145      0.000100
     0.6150      0.000200
     0.6155      0.000000
     0.6160      0.000070
     0.6165      0.000650
     0.6170      0.000000
     0.6175      0.000380
     0.6180      0.000530
     0.6185      0.000200
     0.6190      0.000240
     0.6195      0.000010
     0.6200      0.000160
     0.6205      0.000060
     0.6210      0.000180
     0.6215      0.000310
     0.6220      0.000000
     0.6225      0.000540
     0.6230      0.000310
     0.6235      0.000190
     0.6240      0.000380
     0.6245      0.000210
     0.6250      0.000180
     0.6255      0.000020
     0.6260      0.000130
     0.6265      0.000060
     0.6270      0.000300
     0.6275      0.000120
     0.6280      0.000490
     0.6285      0.000240
     0.6290      0.000220
     0.6295      0.000240
     0.6300      0.000080
     0.6305      0.000270
     0.6310      0.000250
     0.6315      0.000140
     0.6320      0.000400
     0.6325      0.001830
     0.6330      0.019270
     0.6335      0.000330
     0.6340      0.000370
     0.6345      0.000010
     0.6350      0.000240
     0.6355      0.000090
     0.6360      0.000180
     0.6365      0.000090
     0.6370      0.000240
     0.6375      0.000000
     0.6380      0.000100
     0.6385      0.000350
     0.6390      0.000000
     0.6395      0.000030
     0.6400      0.000590
     0.6405      0.000170
     0.6410      0.000000
     0.6415      0.000140
     0.6420      0.000420
     0.6425      0.000000
     0.6430      0.000330
     0.6435      0.000500
     0.6440      0.000000
     0.6445      0.000240
     0.6450      0.000500
     0.6455      0.000080
     0.6460      0.000000
     0.6465      0.000290
     0.6470      0.000260
     0.6475      0.000000
     0.6480      0.000260
     0.6485      0.000190
     0.6490      0.000080
     0.6495      0.000010
     0.6500      0.000250
     0.6505      0.000260
     0.6510      0.000080
     0.6515      0.000270
     0.6520      0.000190
     0.6525      0.000000
     0.6530      0.000020
     0.6535      0.000080
     0.6540      0.000050
     0.6545      0.000000
     0.6550      0.000260
     0.6555      0.000100
     0.6560      0.000000
     0.6565      0.000140
     0.6570      0.000000
     0.6575      0.000010
     0.6580      0.000070
     0.6585      0.000110
     0.6590      0.000000
     0.6595      0.000000
     0.6600      0.000130
     0.6605      0.000000
     0.6610      0.000000
     0.6615      0.000250
     0.6620      0.000110
     0.6625      0.000000
     0.6630      0.000180
     0.6635      0.000250
     0.6640      0.000000
     0.6645      0.000000
     0.6650      0.000260
     0.6655      0.000180
     0.6660      0.000000
     0.6665      0.000040
     0.6670      0.000160
     0.6675      0.000140
     0.6680      0.000090
     0.6685      0.000000
     0.6690      0.000130
     0.6695      0.000000
     0.6700      0.000000
     0.6705      0.000170
     0.6710      0.000350
     0.6715      0.000000
     0.6720      0.000000
     0.6725      0.000150
     0.6730      0.000670
     0.6735      0.000000
     0.6740      0.000000
     0.6745      0.000870
     0.6750      0.000970
     0.6755      0.000000
     0.6760      0.000000
     0.6765      0.000850
     0.6770      0.000030
     0.6775      0.000000
     0.6780      0.000310
     0.6785      0.000310
     0.6790      0.000000
     0.6795      0.000000
     0.6800      0.000420
     0.6805      0.000460
     0.6810      0.000000
     0.6815      0.000000
     0.6820      0.000460
     0.6825      0.000070
     0.6830      0.000000
     0.6835      0.000070
     0.6840      0.000020
     0.6845      0.000010
     0.6850      0.000030
     0.6855      0.000020
     0.6860      0.000140
     0.6865      0.000000
     0.6870      0.000000
     0.6875      0.000020
     0.6880      0.000010
     0.6885      0.000000
     0.6890      0.000000
     0.6895      0.000010
     0.6900      0.000070
     0.6905      0.000000
     0.6910      0.000140
     0.6915      0.000100
     0.6920      0.000110
     0.6925      0.000000
     0.6930      0.000040
     0.6935      0.000010
     0.6940      0.000000
     0.6945      0.000100
     0.6950      0.000120
     0.6955      0.000140
     0.6960      0.000000
     0.6965      0.000000
     0.6970      0.000060
     0.6975      0.000040
     0.6980      0.000040
     0.6985      0.000000
     0.6990      0.000050
     0.6995      0.000000
     0.7000      0.000000
     0.7005      0.000100
     0.7010      0.000030
     0.7015      0.000110
     0.7020      0.000000
     0.7025      0.000000
     0.7030      0.000000
     0.7035      0.000030
     0.7040      0.000130
     0.7045      0.000000
     0.7050      0.000070
     0.7055      0.000030
     0.7060      0.000010
     0.7065      0.000100
     0.7070      0.000030
     0.7075      0.000000
     0.7080      0.000000
     0.7085      0.000060
     0.7090      0.000000
     0.7095      0.000060
     0.7100      0.000000
     0.7105      0.000010
     0.7110      0.000050
     0.7115      0.000000
     0.7120      0.000040
     0.7125      0.000000
     0.7130      0.000050
     0.7135      0.000140
     0.7140      0.000000
     0.7145      0.000010
     0.7150      0.000000
     0.7155      0.000020
     0.7160      0.000020
     0.7165      0.000030
     0.7170      0.000000
     0.7175      0.000030
     0.7180      0.000060
     0.7185      0.000040
     0.7190      0.000020
     0.7195      0.000100
     0.7200      0.000020
     0.7205      0.000000
     0.7210      0.000000
     0.7215      0.000020
     0.7220      0.000070
     0.7225      0.000020
     0.7230      0.000010
     0.7235      0.000020
     0.7240      0.000000
     0.7245      0.000050
     0.7250      0.000000
     0.7255      0.000010
     0.7260      0.000000
     0.7265      0.000040
     0.7270      0.000000
     0.7275      0.000000
     0.7280      0.000000
     0.7285      0.000100
     0.7290      0.000000
     0.7295      0.000000
     0.7300      0.000040
     0.7305      0.000000
     0.7310      0.000060
     0.7315      0.000020
     0.7320      0.000020
     0.7325      0.000020
     0.7330      0.000060
     0.7335      0.000030
     0.7340      0.000010
     0.7345      0.000090
     0.7350      0.000040
     0.7355      0.000000
     0.7360      0.000010
     0.7365      0.000040
     0.7370      0.000050
     0.7375      0.000010
     0.7380      0.000020
     0.7385      0.000000
     0.7390      0.000020
     0.7395      0.000030
     0.7400      0.000090
     0.7405      0.000060
     0.7410      0.000110
     0.7415      0.000000
     0.7420      0.000050
     0.7425      0.000110
     0.7430      0.000000
     0.7435      0.000010
     0.7440      0.000010
     0.7445      0.000010
     0.7450      0.000010
     0.7455      0.000020
     0.7460      0.000000
     0.7465      0.000080
     0.7470      0.000000
     0.7475      0.000060
     0.7480      0.000030
     0.7485      0.000000
     0.7490      0.000000
     0.7495      0.000050
     0.7500      0.000000
     0.7505      0.000000
     0.7510      0.000000
     0.7515      0.000040
     0.7520      0.000010
     0.7525      0.000050
     0.7530      0.000000
     0.7535      0.000010
     0.7540      0.000000
     0.7545      0.000000
     0.7550      0.000000
     0.7555      0.000000
     0.7560      0.000040
     0.7565      0.000000
     0.7570      0.000010
     0.7575      0.000020
     0.7580      0.000060
     0.7585      0.000010
     0.7590      0.000000
     0.7595      0.000000
     0.7600      0.000140
     0.7605      0.000080
     0.7610      0.000000
     0.7615      0.000000
     0.7620      0.000510
     0.7625      0.000820
     0.7630      0.000000
     0.7635      0.000000
     0.7640      0.000000
     0.7645      0.000410
     0.7650      0.000050
     0.7655      0.000000
     0.7660      0.000020
     0.7665      0.000140
     0.7670      0.000040
     0.7675      0.000000
     0.7680      0.000030
     0.7685      0.000060
     0.7690      0.000070
     0.7695      0.000000
     0.7700      0.000030
     0.7705      0.000010
     0.7710      0.000070
     0.7715      0.000030
     0.7720      0.000030
     0.7725      0.000000
     0.7730      0.000000
     0.7735      0.000090
     0.7740      0.000110
     0.7745      0.000000
     0.7750      0.000000
     0.7755      0.000020
     0.7760      0.000050
     0.7765      0.000010
     0.7770      0.000030
     0.7775      0.000000
     0.7780      0.000010
     0.7785      0.000070
     0.7790      0.000000
     0.7795      0.000000
     0.7800      0.000000
     0.7805      0.000000
     0.7810      0.000020
     0.7815      0.000010
     0.7820      0.000000
     0.7825      0.000000
     0.7830      0.000040
     0.7835      0.000000
     0.7840      0.000050
     0.7845      0.000000
     0.7850      0.000000
     0.7855      0.000000
     0.7860      0.000020
     0.7865      0.000020
     0.7870      0.000090
     0.7875      0.000000
     0.7880      0.000000
     0.7885      0.000010
     0.7890      0.000050
     0.7895      0.000000
     0.7900      0.000010
     0.7905      0.000040
     0.7910      0.000020
     0.7915      0.000010
     0.7920      0.000000
     0.7925      0.000000
     0.7930      0.000030
     0.7935      0.000050
     0.7940      0.000020
     0.7945      0.000020
     0.7950      0.000040
     0.7955      0.000010
     0.7960      0.000000
     0.7965      0.000000
     0.7970      0.000030
     0.7975      0.000030
     0.7980      0.000000
     0.7985      0.000000
     0.7990      0.000050
     0.7995      0.000000
     0.8000      0.000040
     0.8005      0.000000
     0.8010      0.000100
     0.8015      0.000010
     0.8020      0.000040
     0.8025      0.000000
     0.8030      0.000010
     0.8035      0.000000
     0.8040      0.000040
     0.8045      0.000000
     0.8050      0.000010
     0.8055      0.000040
     0.8060      0.000010
     0.8065      0.000050
     0.8070      0.000000
     0.8075      0.000000
     0.8080      0.000010
     0.8085      0.000070
     0.8090      0.000010
     0.8095      0.000000
     0.8100      0.000010
     0.8105      0.000010
     0.8110      0.000010
     0.8115      0.000010
     0.8120      0.000050
     0.8125      0.000000
     0.8130      0.000000
     0.8135      0.000030
     0.8140      0.000020
     0.8145      0.000080
     0.8150      0.000020
     0.8155      0.000030
     0.8160      0.000000
     0.8165      0.000030
     0.8170      0.000040
     0.8175      0.000060
     0.8180      0.000020
     0.8185      0.000000
     0.8190      0.000030
     0.8195      0.000010
     0.8200      0.000000
     0.8205      0.000020
     0.8210      0.000020
     0.8215      0.000020
     0.8220      0.000020
     0.8225      0.000000
     0.8230      0.000000
     0.8235      0.000000
     0.8240      0.000010
     0.8245      0.000020
     0.8250      0.000000
     0.8255      0.000030
     0.8260      0.000020
     0.8265      0.000000
     0.8270      0.000000
     0.8275      0.000010
     0.8280      0.000000
     0.8285      0.000000
     0.8290      0.000060
     0.8295      0.000010
     0.8300      0.000000
     0.8305      0.000000
     0.8310      0.000020
     0.8315      0.000040
     0.8320      0.000060
     0.8325      0.000010
     0.8330      0.000000
     0.8335      0.000000
     0.8340      0.000000
     0.8345      0.000010
     0.8350      0.000010
     0.8355      0.000000
     0.8360      0.000020
     0.8365      0.000020
     0.8370      0.000000
     0.8375      0.000000
     0.8380      0.000000
     0.8385      0.000000
     0.8390      0.000030
     0.8395      0.000000
     0.8400      0.000000
     0.8405      0.000000
     0.8410      0.000010
     0.8415      0.000040
     0.8420      0.000000
     0.8425      0.000050
     0.8430      0.000000
     0.8435      0.000030
     0.8440      0.000060
     0.8445      0.000040
     0.8450      0.000040
     0.8455      0.000000
     0.8460      0.000000
     0.8465      0.000010
     0.8470      0.000010
     0.8475      0.000000
     0.8480      0.000010
     0.8485      0.000000
     0.8490      0.000030
     0.8495      0.000070
     0.8500      0.000010
     0.8505      0.000020
     0.8510      0.000000
     0.8515      0.000050
     0.8520      0.000020
     0.8525      0.000000
     0.8530      0.000010
     0.8535      0.000000
     0.8540      0.000000
     0.8545      0.000020
     0.8550      0.000010
     0.8555      0.000000
     0.8560      0.000000
     0.8565      0.000040
     0.8570      0.000040
     0.8575      0.000020
     0.8580      0.000000
     0.8585      0.000000
     0.8590      0.000000
     0.8595      0.000000
     0.8600      0.000000
     0.8605      0.000030
     0.8610      0.000000
     0.8615      0.000000
     0.8620      0.000000
     0.8625      0.000000
     0.8630      0.000030
     0.8635      0.000000
     0.8640      0.000000
     0.8645      0.000050
     0.8650      0.000000
     0.8655      0.000010
     0.8660      0.000010
     0.8665      0.000050
     0.8670      0.000000
     0.8675      0.000030
     0.8680      0.000010
     0.8685      0.000000
     0.8690      0.000000
     0.8695      0.000000
     0.8700      0.000000
     0.8705      0.000030
     0.8710      0.000000
     0.8715      0.000020
     0.8720      0.000010
     0.8725      0.000000
     0.8730      0.000000
     0.8735      0.000000
     0.8740      0.000000
     0.8745      0.000020
     0.8750      0.000010
     0.8755      0.000000
     0.8760      0.000000
     0.8765      0.000000
     0.8770      0.000020
     0.8775      0.000000
     0.8780      0.000000
     0.8785      0.000000
     0.8790      0.000000
     0.8795      0.000000
     0.8800      0.000000
     0.8805      0.000000
     0.8810      0.000040
     0.8815      0.000000
     0.8820      0.000000
     0.8825      0.000000
     0.8830      0.000040
     0.8835      0.000000
     0.8840      0.000000
     0.8845      0.000030
     0.8850      0.000010
     0.8855      0.000020
     0.8860      0.000010
     0.8865      0.000000
     0.8870      0.000000
     0.8875      0.000000
     0.8880      0.000000
     0.8885      0.000000
     0.8890      0.000020
     0.8895      0.000020
     0.8900      0.000000
     0.8905      0.000000
     0.8910      0.000020
     0.8915      0.000020
     0.8920      0.000000
     0.8925      0.000050
     0.8930      0.000000
     0.8935      0.000030
     0.8940      0.000000
     0.8945      0.000000
     0.8950      0.000000
     0.8955      0.000010
     0.8960      0.000020
     0.8965      0.000020
     0.8970      0.000000
     0.8975      0.000000
     0.8980      0.000000
     0.8985      0.000020
     0.8990      0.000000
     0.8995      0.000000
     0.9000      0.000000
     0.9005      0.000010
     0.9010      0.000000
     0.9015      0.000000
     0.9020      0.000010
     0.9025      0.000030
     0.9030      0.000020
     0.9035      0.000010
     0.9040      0.000030
     0.9045      0.000000
     0.9050      0.000010
     0.9055      0.000000
     0.9060      0.000010
     0.9065      0.000020
     0.9070      0.000030
     0.9075      0.000000
     0.9080      0.000000
     0.9085      0.000010
     0.9090      0.000010
     0.9095      0.000000
     0.9100      0.000000
     0.9105      0.000010
     0.9110      0.000000
     0.9115      0.000000
     0.9120      0.000010
     0.9125      0.000000
     0.9130      0.000020
     0.9135      0.000010
     0.9140      0.000020
     0.9145      0.000010
     0.9150      0.000000
     0.9155      0.000000
     0.9160      0.000020
     0.9165      0.000000
     0.9170      0.000000
     0.9175      0.000000
     0.9180      0.000020
     0.9185      0.000000
     0.9190      0.000000
     0.9195      0.000000
     0.9200      0.000000
     0.9205      0.000000
     0.9210      0.000000
     0.9215      0.000030
     0.9220      0.000000
     0.9225      0.000020
     0.9230      0.000000
     0.9235      0.000010
     0.9240      0.000030
     0.9245      0.000000
     0.9250      0.000000
     0.9255      0.000000
     0.9260      0.000000
     0.9265      0.000000
     0.9270      0.000020
     0.9275      0.000010
     0.9280      0.000000
     0.9285      0.000000
     0.9290      0.000000
     0.9295      0.000020
     0.9300      0.000000
     0.9305      0.000010
     0.9310      0.000010
     0.9315      0.000000
     0.9320      0.000010
     0.9325      0.000020
     0.9330      0.000000
     0.9335      0.000010
     0.9340      0.000000
     0.9345      0.000010
     0.9350      0.000030
     0.9355      0.000010
     0.9360      0.000000
     0.9365      0.000000
     0.9370      0.000000
     0.9375      0.000000
     0.9380      0.000000
     0.9385      0.000010
     0.9390      0.000000
     0.9395      0.000040
     0.9400      0.000010
     0.9405      0.000020
     0.9410      0.000000
     0.9415      0.000020
     0.9420      0.000010
     0.9425      0.000010
     0.9430      0.000000
     0.9435      0.000010
     0.9440      0.000010
     0.9445      0.000010
     0.9450      0.000020
     0.9455      0.000020
     0.9460      0.000010
     0.9465      0.000000
     0.9470      0.000010
     0.9475      0.000000
     0.9480      0.000000
     0.9485      0.000000
     0.9490      0.000000
     0.9495      0.000020
     0.9500      0.000000
     0.9505      0.000000
     0.9510      0.000000
     0.9515      0.000000
     0.9520      0.000000
     0.9525      0.000020
     0.9530      0.000000
     0.9535      0.000000
     0.9540      0.000000
     0.9545      0.000020
     0.9550      0.000000
     0.9555      0.000000
     0.9560      0.000010
     0.9565      0.000010
     0.9570      0.000000
     0.9575      0.000000
     0.9580      0.000000
     0.9585      0.000000
     0.9590      0.000020
     0.9595      0.000000
     0.9600      0.000000
     0.9605      0.000010
     0.9610      0.000000
     0.9615      0.000000
     0.9620      0.000000
     0.9625      0.000020
     0.9630      0.000000
     0.9635      0.000010
     0.9640      0.000000
     0.9645      0.000000
     0.9650      0.000010
     0.9655      0.000000
     0.9660      0.000000
     0.9665      0.000000
     0.9670      0.000000
     0.9675      0.000000
     0.9680      0.000010
     0.9685      0.000000
     0.9690      0.000000
     0.9695      0.000000
     0.9700      0.000000
     0.9705      0.000000
     0.9710      0.000000
     0.9715      0.000010
     0.9720      0.000000
     0.9725      0.000000
     0.9730      0.000000
     0.9735      0.000000
     0.9740      0.000000
     0.9745      0.000010
     0.9750      0.000000
     0.9755      0.000000
     0.9760      0.000000
     0.9765      0.000000
     0.9770      0.000000
     0.9775      0.000010
     0.9780      0.000000
     0.9785      0.000010
     0.9790      0.000010
     0.9795      0.000000
     0.9800      0.000010
     0.9805      0.000000
     0.9810      0.000000
     0.9815      0.000000
     0.9820      0.000000
     0.9825      0.000000
     0.9830      0.000000
     0.9835      0.000010
     0.9840      0.000000
     0.9845      0.000010
     0.9850      0.000000
     0.9855      0.000000
     0.9860      0.000000
     0.9865      0.000010
     0.9870      0.000010
     0.9875      0.000020
     0.9880      0.000010
     0.9885      0.000010
     0.9890      0.000010
     0.9895      0.000000
     0.9900      0.000000
     0.9905      0.000000
     0.9910      0.000000
     0.9915      0.000000
     0.9920      0.000010
     0.9925      0.000000
     0.9930      0.000010
     0.9935      0.000000
     0.9940      0.000000
     0.9945      0.000000
     0.9950      0.000000
     0.9955      0.000010
     0.9960      0.000010
     0.9965      0.000000
     0.9970      0.000010
     0.9975      0.000000
     0.9980      0.000000
     0.9985      0.000000
     0.9990      0.000000
     0.9995      0.000000
     1.0000      0.000000
     1.0005      0.000000
     1.0010      0.000000
     1.0015      0.000010
     1.0020      0.000010
     1.0025      0.000010
     1.0030      0.000000
     1.0035      0.000010
     1.0040      0.000010
     1.0045      0.000000
     1.0050      0.000010
     1.0055      0.000000
     1.0060      0.000000
     1.0065      0.000000
     1.0070      0.000000
     1.0075      0.000020
     1.0080      0.000010
     1.0085      0.000000
     1.0090      0.000000
     1.0095      0.000000
     1.0100      0.000000
     1.0105      0.000000
     1.0110      0.000000
     1.0115      0.000000
     1.0120      0.000000
     1.0125      0.000020
     1.0130      0.000000
     1.0135      0.000010
     1.0140      0.000010
     1.0145      0.000000
     1.0150      0.000010
     1.0155      0.000010
     1.0160      0.000000
     1.0165      0.000000
     1.0170      0.000010
     1.0175      0.000000
     1.0180      0.000000
     1.0185      0.000000
     1.0190      0.000010
     1.0195      0.000000
     1.0200      0.000010
     1.0205      0.000010
     1.0210      0.000010
     1.0215      0.000000
     1.0220      0.000000
     1.0225      0.000010
     1.0230      0.000010
     1.0235      0.000010
     1.0240      0.000000
     1.0245      0.000000
     1.0250      0.000000
     1.0255      0.000000
     1.0260      0.000000
     1.0265      0.000000
     1.0270      0.000010
     1.0275      0.000000
     1.0280      0.000010
     1.0285      0.000010
     1.0290      0.000020
     1.0295      0.000000
     1.0300      0.000000
     1.0305      0.000000
     1.0310      0.000010
     1.0315      0.000000
     1.0320      0.000010
     1.0325      0.000000
     1.0330      0.000010
     1.0335      0.000000
     1.0340      0.000000
     1.0345      0.000010
     1.0350      0.000000
     1.0355      0.000010
     1.0360      0.000000
     1.0365      0.000000
     1.0370      0.000010
     1.0375      0.000010
     1.0380      0.000000
     1.0385      0.000010
     1.0390      0.000000
     1.0395      0.000010
     1.0400      0.000000
     1.0405      0.000010
     1.0410      0.000000
     1.0415      0.000000
     1.0420      0.000020
     1.0425      0.000010
     1.0430      0.000000
     1.0435      0.000000
     1.0440      0.000000
     1.0445      0.000000
     1.0450      0.000020
     1.0455      0.000000
     1.0460      0.000020
     1.0465      0.000010
     1.0470      0.000020
     1.0475      0.000010
     1.0480      0.000000
     1.0485      0.000000
     1.0490      0.000030
     1.0495      0.000010
     1.0500      0.000000
     1.0505      0.000010
     1.0510      0.000000
     1.0515      0.000000
     1.0520      0.000000
     1.0525      0.000010
     1.0530      0.000000
     1.0535      0.000020
     1.0540      0.000010
     1.0545      0.000010
     1.0550      0.000010
     1.0555      0.000020
     1.0560      0.000000
     1.0565      0.000010
     1.0570      0.000010
     1.0575      0.000020
     1.0580      0.000010
     1.0585      0.000000
     1.0590      0.000000
     1.0595      0.000010
     1.0600      0.000010
     1.0605      0.000000
     1.0610      0.000000
     1.0615      0.000000
     1.0620      0.000010
     1.0625      0.000000
     1.0630      0.000010
     1.0635      0.000000
     1.0640      0.000020
     1.0645      0.000020
     1.0650      0.000000
     1.0655      0.000010
     1.0660      0.000000
     1.0665      0.000000
     1.0670      0.000010
     1.0675      0.000010
     1.0680      0.000030
     1.0685      0.000020
     1.0690      0.000000
     1.0695      0.000000
     1.0700      0.000010
     1.0705      0.000000
     1.0710      0.000030
     1.0715      0.000040
     1.0720      0.000020
     1.0725      0.000020
     1.0730      0.000000
     1.0735      0.000000
     1.0740      0.000000
     1.0745      0.000020
     1.0750      0.000000
     1.0755      0.000030
     1.0760      0.000030
     1.0765      0.000000
     1.0770      0.000000
     1.0775      0.000060
     1.0780      0.000000
     1.0785      0.000010
     1.0790      0.000000
     1.0795      0.000000
     1.0800      0.000040
     1.0805      0.000000
     1.0810      0.000010
     1.0815      0.000000
     1.0820      0.000030
     1.0825      0.000000
     1.0830      0.000000
     1.0835      0.000000
     1.0840      0.000020
     1.0845      0.000020
     1.0850      0.000010
     1.0855      0.000010
     1.0860      0.000000
     1.0865      0.000040
     1.0870      0.000000
     1.0875      0.000000
     1.0880      0.000020
     1.0885      0.000000
     1.0890      0.000020
     1.0895      0.000010
     1.0900      0.000020
     1.0905      0.000000
     1.0910      0.000000
     1.0915      0.000080
     1.0920      0.000060
     1.0925      0.000000
     1.0930      0.000040
     1.0935      0.000000
     1.0940      0.000000
     1.0945      0.000010
     1.0950      0.000000
     1.0955      0.000030
     1.0960      0.000000
     1.0965      0.000030
     1.0970      0.000010
     1.0975      0.000010
     1.0980      0.000000
     1.0985      0.000010
     1.0990      0.000040
     1.0995      0.000020
     1.1000      0.000010
     1.1005      0.000000
     1.1010      0.000020
     1.1015      0.000000
     1.1020      0.000000
     1.1025      0.000020
     1.1030      0.000000
     1.1035      0.000020
     1.1040      0.000010
     1.1045      0.000020
     1.1050      0.000060
     1.1055      0.000030
     1.1060      0.000050
     1.1065      0.000000
     1.1070      0.000020
     1.1075      0.000010
     1.1080      0.000060
     1.1085      0.000030
     1.1090      0.000030
     1.1095      0.000020
     1.1100      0.000030
     1.1105      0.000000
     1.1110      0.000030
     1.1115      0.001140
     1.1120      0.001380
     1.1125      0.000000
     1.1130      0.000550
     1.1135      0.000140
     1.1140      0.000000
     1.1145      0.000000
     1.1150      0.000000
     1.1155      0.000310
     1.1160      0.000470
     1.1165      0.000120
     1.1170      0.001340
     1.1175      0.000000
     1.1180      0.000260
     1.1185      0.000000
     1.1190      0.000410
     1.1195      0.001030
     1.1200      0.000000
     1.1205      0.000110
     1.1210      0.000400
     1.1215      0.000280
     1.1220      0.000560
     1.1225      0.000010
     1.1230      0.001410
     1.1235      0.001040
     1.1240      0.000020
     1.1245      0.000000
     1.1250      0.000000
     1.1255      0.000320
     1.1260      0.000000
     1.1265      0.000000
     1.1270      0.000000
     1.1275      0.000080
     1.1280      0.000000
     1.1285      0.001400
     1.1290      0.000000
     1.1295      0.000000
     1.1300      0.000000
     1.1305      0.000000
     1.1310      0.000000
     1.1315      0.000000
     1.1320      0.000000
     1.1325      0.000000
     1.1330      0.000000
     1.1335      0.001310
     1.1340      0.000000
     1.1345      0.000000
     1.1350      0.001150
     1.1355      0.000000
     1.1360      0.000000
     1.1365      0.000000
     1.1370      0.000000
     1.1375      0.000230
     1.1380      0.000670
     1.1385      0.000000
     1.1390      0.001870
     1.1395      0.000000
     1.1400      0.000000
     1.1405      0.000000
     1.1410      0.000020
     1.1415      0.000000
     1.1420      0.000000
     1.1425      0.000000
     1.1430      0.000000
     1.1435      0.000000
     1.1440      0.000000
     1.1445      0.000000
     1.1450      0.000030
     1.1455      0.000010
     1.1460      0.000010
     1.1465      0.000170
     1.1470      0.000000
     1.1475      0.000000
     1.1480      0.000000
     1.1485      0.000240
     1.1490      0.000070
     1.1495      0.000000
     1.1500      0.000410
     1.1505      0.000000
     1.1510      0.000240
     1.1515      0.000000
     1.1520      0.000040
     1.1525      0.000020
     1.1530      0.000000
     1.1535      0.000000
     1.1540      0.000000
     1.1545      0.000000
     1.1550      0.000720
     1.1555      0.000340
     1.1560      0.000000
     1.1565      0.000040
     1.1570      0.000080
     1.1575      0.000000
     1.1580      0.000350
     1.1585      0.000000
     1.1590      0.000000
     1.1595      0.000290
     1.1600      0.000560
     1.1605      0.000990
     1.1610      0.000330
     1.1615      0.000220
     1.1620      0.000140
     1.1625      0.001430
     1.1630      0.000540
     1.1635      0.001200
     1.1640      0.000050
     1.1645      0.001490
     1.1650      0.001070
     1.1655      0.000110
     1.1660      0.000000
     1.1665      0.000000
     1.1670      0.000000
     1.1675      0.000400
     1.1680      0.000240
     1.1685      0.000720
     1.1690      0.000540
     1.1695      0.000420
     1.1700      0.000660
     1.1705      0.000880
     1.1710      0.000020
     1.1715      0.000260
     1.1720      0.000270
     1.1725      0.000080
     1.1730      0.000310
     1.1735      0.001630
     1.1740      0.001450
     1.1745      0.000000
     1.1750      0.000290
     1.1755      0.000000
     1.1760      0.000150
     1.1765      0.000000
     1.1770      0.000110
     1.1775      0.001250
     1.1780      0.000770
     1.1785      0.000810
     1.1790      0.000000
     1.1795      0.000730
     1.1800      0.000080
     1.1805      0.000000
     1.1810      0.000080
     1.1815      0.000000
     1.1820      0.001010
     1.1825      0.000320
     1.1830      0.000010
     1.1835      0.000020
     1.1840      0.000710
     1.1845      0.000020
     1.1850      0.000520
     1.1855      0.000460
     1.1860      0.000780
     1.1865      0.001050
     1.1870      0.001250
     1.1875      0.000010
     1.1880      0.000720
     1.1885      0.002540
     1.1890      0.000420
     1.1895      0.001070
     1.1900      0.000960
     1.1905      0.000900
     1.1910      0.002190
     1.1915      0.000010
     1.1920      0.000810
     1.1925      0.000000
     1.1930      0.001070
     1.1935      0.000410
     1.1940      0.000380
     1.1945      0.001430
     1.1950      0.000640
     1.1955      0.001160
     1.1960      0.000630
     1.1965      0.002580
     1.1970      0.000840
     1.1975      0.001400
     1.1980      0.000210
     1.1985      0.000000
     1.1990      0.002490
     1.1995      0.000650
     1.2000      0.000530
     1.2005      0.003000
     1.2010      0.001740
     1.2015      0.000900
     1.2020      0.000100
     1.2025      0.000280
     1.2030      0.002190
     1.2035      0.001420
     1.2040      0.001620
     1.2045      0.001990
     1.2050      0.001750
     1.2055      0.000840
     1.2060      0.000820
     1.2065      0.001440
     1.2070      0.002410
     1.2075      0.001950
     1.2080      0.001790
     1.2085      0.001290
     1.2090      0.000030
     1.2095      0.002070
     1.2100      0.002320
     1.2105      0.002260
     1.2110      0.000390
     1.2115      0.002290
     1.2120      0.002880
     1.2125      0.002120
     1.2130      0.000580
     1.2135      0.000590
     1.2140      0.002000
     1.2145      0.002420
     1.2150      0.002180
     1.2155      0.002100
     1.2160      0.001070
     1.2165      0.001610
     1.2170      0.001920
     1.2175      0.002500
     1.2180      0.002050
     1.2185      0.000920
     1.2190      0.001800
     1.2195      0.000510
     1.2200      0.000550
     1.2205      0.000960
     1.2210      0.001080
     1.2215      0.002690
     1.2220      0.002120
     1.2225      0.001230
     1.2230      0.000430
     1.2235      0.000780
     1.2240      0.002460
     1.2245      0.002200
     1.2250      0.002580
     1.2255      0.001360
     1.2260      0.002450
     1.2265      0.001850
     1.2270      0.003070
     1.2275      0.004020
     1.2280      0.001850
     1.2285      0.001340
     1.2290      0.001970
     1.2295      0.002320
     1.2300      0.002930
     1.2305      0.003600
     1.2310      0.002270
     1.2315      0.003620
     1.2320      0.001030
     1.2325      0.003350
     1.2330      0.003570
     1.2335      0.002500
     1.2340      0.004200
     1.2345      0.003740
     1.2350      0.004000
     1.2355      0.005300
     1.2360      0.005480
     1.2365      0.007750
     1.2370      0.008670
     1.2375      0.008400
     1.2380      0.012490
     1.2385      0.015150
     1.2390      0.018730
     1.2395      0.021990
     1.2400      0.030140
     1.2405      0.039150
     1.2410      0.050610
     1.2415      0.067850
     1.2420      0.088660
     1.2425      0.118770
     1.2430      0.153020
     1.2435      0.202430
     1.2440      0.260390
     1.2445      0.326900
     1.2450      0.399580
     1.2455      0.476020
     1.2460      0.547390
     1.2465      0.611350
     1.2470      0.669540
     1.2475      0.716580
     1.2480      0.752800
     1.2485      0.785210
     1.2490      0.811350
     1.2495      0.833200
     1.2500      0.853380
     1.2505      0.871640
     1.2510      0.885490
     1.2515      0.898790
     1.2520      0.910090
     1.2525      0.921210
     1.2530      0.929810
     1.2535      0.938350
     1.2540      0.944620
     1.2545      0.951530
     1.2550      0.957080
     1.2555      0.958820
     1.2560      0.962210
     1.2565      0.967560
     1.2570      0.967050
     1.2575      0.969930
     1.2580      0.972910
     1.2585      0.971830
     1.2590      0.972930
     1.2595      0.973100
     1.2600      0.975820
     1.2605      0.975550
     1.2610      0.974530
     1.2615      0.976000
     1.2620      0.973550
     1.2625      0.973180
     1.2630      0.973740
     1.2635      0.973560
     1.2640      0.972030
     1.2645      0.973370
     1.2650      0.973670
     1.2655      0.972230
     1.2660      0.972840
     1.2665      0.974460
     1.2670      0.975210
     1.2675      0.973720
     1.2680      0.976310
     1.2685      0.977660
     1.2690      0.978990
     1.2695      0.981470
     1.2700      0.982100
     1.2705      0.983050
     1.2710      0.984270
     1.2715      0.985550
     1.2720      0.984850
     1.2725      0.987410
     1.2730      0.990320
     1.2735      0.991080
     1.2740      0.991430
     1.2745      0.991810
     1.2750      0.993590
     1.2755      0.993880
     1.2760      0.993670
     1.2765      0.995630
     1.2770      0.996300
     1.2775      0.998160
     1.2780      0.997050
     1.2785      0.997920
     1.2790      0.999520
     1.2795      0.999060
     1.2800      0.998790
     1.2805      0.999550
     1.2810      0.998860
     1.2815      0.999510
     1.2820      1.000550
     1.2825      1.000310
     1.2830      0.999470
     1.2835      0.999110
     1.2840      0.999110
     1.2845      0.998210
     1.2850      0.998690
     1.2855      0.997430
     1.2860      0.997340
     1.2865      0.994530
     1.2870      0.994260
     1.2875      0.993760
     1.2880      0.994590
     1.2885      0.993120
     1.2890      0.993180
     1.2895      0.992660
     1.2900      0.991590
     1.2905      0.989070
     1.2910      0.989200
     1.2915      0.989100
     1.2920      0.987840
     1.2925      0.986020
     1.2930      0.985580
     1.2935      0.984180
     1.2940      0.983860
     1.2945      0.984580
     1.2950      0.985070
     1.2955      0.982310
     1.2960      0.983590
     1.2965      0.985690
     1.2970      0.986700
     1.2975      0.987890
     1.2980      0.987400
     1.2985      0.987930
     1.2990      0.989430
     1.2995      0.991350
     1.3000      0.992320
     1.3005      0.993010
     1.3010      0.993170
     1.3015      0.994770
     1.3020      0.995580
     1.3025      0.997240
     1.3030      0.998300
     1.3035      0.999680
     1.3040      0.999470
     1.3045      0.999020
     1.3050      1.000410
     1.3055      0.998340
     1.3060      0.999040
     1.3065      0.999320
     1.3070      0.998210
     1.3075      0.998580
     1.3080      0.998590
     1.3085      0.998320
     1.3090      0.998110
     1.3095      0.997210
     1.3100      0.995680
     1.3105      0.995090
     1.3110      0.994110
     1.3115      0.991600
     1.3120      0.990450
     1.3125      0.987340
     1.3130      0.987330
     1.3135      0.985020
     1.3140      0.982990
     1.3145      0.981090
     1.3150      0.979080
     1.3155      0.977910
     1.3160      0.975020
     1.3165      0.972100
     1.3170      0.971860
     1.3175      0.970830
     1.3180      0.969160
     1.3185      0.965960
     1.3190      0.966440
     1.3195      0.965430
     1.3200      0.964380
     1.3205      0.964430
     1.3210      0.962860
     1.3215      0.963720
     1.3220      0.965250
     1.3225      0.962660
     1.3230      0.964700
     1.3235      0.965170
     1.3240      0.966360
     1.3245      0.966410
     1.3250      0.967940
     1.3255      0.968340
     1.3260      0.971780
     1.3265      0.973740
     1.3270      0.974460
     1.3275      0.975680
     1.3280      0.977540
     1.3285      0.979210
     1.3290      0.980540
     1.3295      0.983020
     1.3300      0.984710
     1.3305      0.987040
     1.3310      0.989820
     1.3315      0.991760
     1.3320      0.992420
     1.3325      0.996140
     1.3330      0.994930
     1.3335      0.996950
     1.3340      0.996110
     1.3345      0.996710
     1.3350      0.994350
     1.3355      0.993190
     1.3360      0.989450
     1.3365      0.987950
     1.3370      0.980960
     1.3375      0.973150
     1.3380      0.965530
     1.3385      0.953790
     1.3390      0.941910
     1.3395      0.927130
     1.3400      0.915340
     1.3405      0.900870
     1.3410      0.885670
     1.3415      0.870700
     1.3420      0.858260
     1.3425      0.847130
     1.3430      0.838150
     1.3435      0.831060
     1.3440      0.830310
     1.3445      0.832190
     1.3450      0.838730
     1.3455      0.850180
     1.3460      0.867120
     1.3465      0.887170
     1.3470      0.909090
     1.3475      0.927300
     1.3480      0.930650
     1.3485      0.910980
     1.3490      0.857630
     1.3495      0.770590
     1.3500      0.653110
     1.3505      0.527940
     1.3510      0.408680
     1.3515      0.310040
     1.3520      0.231810
     1.3525      0.172270
     1.3530      0.128780
     1.3535      0.095530
     1.3540      0.072510
     1.3545      0.055500
     1.3550      0.043770
     1.3555      0.035360
     1.3560      0.027510
     1.3565      0.023120
     1.3570      0.018150
     1.3575      0.015920
     1.3580      0.012980
     1.3585      0.012110
     1.3590      0.010220
     1.3595      0.008790
     1.3600      0.008040
     1.3605      0.008380
     1.3610      0.007490
     1.3615      0.006490
     1.3620      0.005390
     1.3625      0.005740
     1.3630      0.003900
     1.3635      0.004150
     1.3640      0.005640
     1.3645      0.005180
     1.3650      0.003920
     1.3655      0.004040
     1.3660      0.003640
     1.3665      0.004270
     1.3670      0.003640
     1.3675      0.003120
     1.3680      0.002120
     1.3685      0.002780
     1.3690      0.003290
     1.3695      0.003070
     1.3700      0.001880
     1.3705      0.003090
     1.3710      0.003180
     1.3715      0.002740
     1.3720      0.001060
     1.3725      0.002380
     1.3730      0.002980
     1.3735      0.000910
     1.3740      0.002000
     1.3745      0.001990
     1.3750      0.002160
     1.3755      0.002130
     1.3760      0.001970
     1.3765      0.001850
     1.3770      0.000790
     1.3775      0.001440
     1.3780      0.001750
     1.3785      0.000000
     1.3790      0.001670
     1.3795      0.001100
     1.3800      0.000860
     1.3805      0.001610
     1.3810      0.000970
     1.3815      0.000830
     1.3820      0.000810
     1.3825      0.000620
     1.3830      0.000740
     1.3835      0.000370
     1.3840      0.001380
     1.3845      0.000530
     1.3850      0.000720
     1.3855      0.000250
     1.3860      0.001010
     1.3865      0.000000
     1.3870      0.000050
     1.3875      0.001150
     1.3880      0.000500
     1.3885      0.000760
     1.3890      0.000650
     1.3895      0.000660
     1.3900      0.000060
     1.3905      0.000190
     1.3910      0.001110
     1.3915      0.001100
     1.3920      0.001320
     1.3925      0.000940
     1.3930      0.000000
     1.3935      0.000260
     1.3940      0.001070
     1.3945      0.001210
     1.3950      0.001400
     1.3955      0.001240
     1.3960      0.000920
     1.3965      0.000610
     1.3970      0.000940
     1.3975      0.000860
     1.3980      0.001580
     1.3985      0.000890
     1.3990      0.001140
     1.3995      0.000280
     1.4000      0.000460
     1.4005      0.001190
     1.4010      0.000070
     1.4015      0.000340
     1.4020      0.000320
     1.4025      0.000000
     1.4030      0.000460
     1.4035      0.000720
     1.4040      0.001050
     1.4045      0.000610
     1.4050      0.000170
     1.4055      0.000080
     1.4060      0.000120
     1.4065      0.000300
     1.4070      0.000770
     1.4075      0.000870
     1.4080      0.000860
     1.4085      0.001040
     1.4090      0.001160
     1.4095      0.000500
     1.4100      0.000370
     1.4105      0.000630
     1.4110      0.000490
     1.4115      0.000870
     1.4120      0.000270
     1.4125      0.000120
     1.4130      0.000640
     1.4135      0.000590
     1.4140      0.000590
     1.4145      0.000110
     1.4150      0.000540
     1.4155      0.000270
     1.4160      0.000000
     1.4165      0.000240
     1.4170      0.000000
     1.4175      0.000450
     1.4180      0.000000
     1.4185      0.000000
     1.4190      0.000340
     1.4195      0.000330
     1.4200      0.000690
     1.4205      0.000220
     1.4210      0.000000
     1.4215      0.000940
     1.4220      0.000930
     1.4225      0.000210
     1.4230      0.000080
     1.4235      0.001280
     1.4240      0.001320
     1.4245      0.000440
     1.4250      0.001130
     1.4255      0.000000
     1.4260      0.000580
     1.4265      0.000290
     1.4270      0.000080
     1.4275      0.000240
     1.4280      0.000000
     1.4285      0.000090
     1.4290      0.000360
     1.4295      0.000190
     1.4300      0.000130
     1.4305      0.000670
     1.4310      0.001420
     1.4315      0.000830
     1.4320      0.000790
     1.4325      0.000130
     1.4330      0.000000
     1.4335      0.000000
     1.4340      0.000490
     1.4345      0.001150
     1.4350      0.000480
     1.4355      0.000970
     1.4360      0.000430
     1.4365      0.000820
     1.4370      0.000290
     1.4375      0.000390
     1.4380      0.000500
     1.4385      0.000880
     1.4390      0.000650
     1.4395      0.001470
     1.4400      0.000230
     1.4405      0.000000
     1.4410      0.000150
     1.4415      0.000690
     1.4420      0.000370
     1.4425      0.000100
     1.4430      0.000040
     1.4435      0.000280
     1.4440      0.000610
     1.4445      0.000170
     1.4450      0.000180
     1.4455      0.000440
     1.4460      0.000680
     1.4465      0.001060
     1.4470      0.000000
     1.4475      0.000000
     1.4480      0.000680
     1.4485      0.000990
     1.4490      0.000280
     1.4495      0.000330
     1.4500      0.000000
     1.4505      0.000980
     1.4510      0.001060
     1.4515      0.000270
     1.4520      0.000070
     1.4525      0.000260
     1.4530      0.000050
     1.4535      0.000300
     1.4540      0.000440
     1.4545      0.000160
     1.4550      0.000440
     1.4555      0.000710
     1.4560      0.001090
     1.4565      0.001060
     1.4570      0.000450
     1.4575      0.000520
     1.4580      0.000000
     1.4585      0.000010
     1.4590      0.000710
     1.4595      0.000020
     1.4600      0.001350
     1.4605      0.001080
     1.4610      0.000100
     1.4615      0.000080
     1.4620      0.000350
     1.4625      0.000500
     1.4630      0.000090
     1.4635      0.000000
     1.4640      0.000380
     1.4645      0.000380
     1.4650      0.000000
     1.4655      0.000670
     1.4660      0.000420
     1.4665      0.000490
     1.4670      0.000060
     1.4675      0.000960
     1.4680      0.000360
     1.4685      0.000360
     1.4690      0.000900
     1.4695      0.000170
     1.4700      0.000880
     1.4705      0.000000
     1.4710      0.000000
     1.4715      0.000980
     1.4720      0.000640
     1.4725      0.000350
     1.4730      0.000470
     1.4735      0.000400
     1.4740      0.000190
     1.4745      0.000440
     1.4750      0.000090
     1.4755      0.000530
     1.4760      0.000860
     1.4765      0.000530
     1.4770      0.000180
     1.4775      0.000390
     1.4780      0.000050
     1.4785      0.000440
     1.4790      0.000020
     1.4795      0.001310
     1.4800      0.000080
     1.4805      0.000000
     1.4810      0.000080
     1.4815      0.000090
     1.4820      0.000000
     1.4825      0.000500
     1.4830      0.000000
     1.4835      0.000410
     1.4840      0.000000
     1.4845      0.000000
     1.4850      0.000000
     1.4855      0.000190
     1.4860      0.000210
     1.4865      0.000280
     1.4870      0.000940
     1.4875      0.000340
     1.4880      0.000730
     1.4885      0.000470
     1.4890      0.000030
     1.4895      0.000270
     1.4900      0.000220
     1.4905      0.000310
     1.4910      0.000200
     1.4915      0.000440
     1.4920      0.000920
     1.4925      0.000760
     1.4930      0.000060
     1.4935      0.000270
     1.4940      0.000350
     1.4945      0.000550
     1.4950      0.000440
     1.4955      0.000350
     1.4960      0.000070
     1.4965      0.000000
     1.4970      0.000010
     1.4975      0.000370
     1.4980      0.000250
     1.4985      0.000050
     1.4990      0.000470
     1.4995      0.001020
     1.5000      0.000380
     1.5005      0.000110
     1.5010      0.000000
     1.5015      0.000500
     1.5020      0.000070
     1.5025      0.000010
     1.5030      0.000440
     1.5035      0.000840
     1.5040      0.000280
     1.5045      0.000070
     1.5050      0.000000
     1.5055      0.000080
     1.5060      0.000000
     1.5065      0.000010
     1.5070      0.000040
     1.5075      0.000100
     1.5080      0.000000
     1.5085      0.000030
     1.5090      0.000030
     1.5095      0.000410
     1.5100      0.000330
     1.5105      0.000250
     1.5110      0.000000
     1.5115      0.000170
     1.5120      0.000210
     1.5125      0.000310
     1.5130      0.000020
     1.5135      0.000000
     1.5140      0.000080
     1.5145      0.000780
     1.5150      0.000640
     1.5155      0.000000
     1.5160      0.000020
     1.5165      0.000080
     1.5170      0.000000
     1.5175      0.000000
     1.5180      0.000000
     1.5185      0.000210
     1.5190      0.000000
     1.5195      0.000290
     1.5200      0.000160
     1.5205      0.000520
     1.5210      0.000560
     1.5215      0.000220
     1.5220      0.000460
     1.5225      0.000750
     1.5230      0.000330
     1.5235      0.000020
     1.5240      0.000120
     1.5245      0.000000
     1.5250      0.000100
     1.5255      0.000560
     1.5260      0.001050
     1.5265      0.000340
     1.5270      0.000000
     1.5275      0.000030
     1.5280      0.000000
     1.5285      0.000010
     1.5290      0.000100
     1.5295      0.000000
     1.5300      0.000530
     1.5305      0.000880
     1.5310      0.000510
     1.5315      0.000640
     1.5320      0.000440
     1.5325      0.000110
     1.5330      0.000450
     1.5335      0.000110
     1.5340      0.000100
     1.5345      0.000690
     1.5350      0.000140
     1.5355      0.000400
     1.5360      0.000080
     1.5365      0.000320
     1.5370      0.000170
     1.5375      0.000000
     1.5380      0.000000
     1.5385      0.000030
     1.5390      0.000080
     1.5395      0.000470
     1.5400      0.000000
     1.5405      0.000460
     1.5410      0.000000
     1.5415      0.000150
     1.5420      0.000000
     1.5425      0.000000
     1.5430      0.000030
     1.5435      0.000820
     1.5440      0.000310
     1.5445      0.000680
     1.5450      0.001050
     1.5455      0.000610
     1.5460      0.000000
     1.5465      0.000590
     1.5470      0.000040
     1.5475      0.000000
     1.5480      0.000000
     1.5485      0.000480
     1.5490      0.000020
     1.5495      0.000180
     1.5500      0.000100
     1.5505      0.000700
     1.5510      0.000360
     1.5515      0.000470
     1.5520      0.000040
     1.5525      0.000000
     1.5530      0.000580
     1.5535      0.000260
     1.5540      0.000000
     1.5545      0.000000
     1.5550      0.000360
     1.5555      0.000290
     1.5560      0.000000
     1.5565      0.000060
     1.5570      0.000510
     1.5575      0.000000
     1.5580      0.000000
     1.5585      0.000000
     1.5590      0.000290
     1.5595      0.000000
     1.5600      0.000000
     1.5605      0.000000
     1.5610      0.000000
     1.5615      0.000390
     1.5620      0.000680
     1.5625      0.000040
     1.5630      0.000630
     1.5635      0.000710
     1.5640      0.000340
     1.5645      0.000040
     1.5650      0.000770
     1.5655      0.000560
     1.5660      0.000210
     1.5665      0.000010
     1.5670      0.000000
     1.5675      0.000020
     1.5680      0.000270
     1.5685      0.000140
     1.5690      0.000000
     1.5695      0.000000
     1.5700      0.000380
     1.5705      0.000060
     1.5710      0.000490
     1.5715      0.000050
     1.5720      0.000000
     1.5725      0.000030
     1.5730      0.000320
     1.5735      0.000090
     1.5740      0.000240
     1.5745      0.000510
     1.5750      0.000120
     1.5755      0.000490
     1.5760      0.000520
     1.5765      0.000460
     1.5770      0.000620
     1.5775      0.000000
     1.5780      0.000320
     1.5785      0.000340
     1.5790      0.000600
     1.5795      0.000300
     1.5800      0.000410
     1.5805      0.000130
     1.5810      0.000770
     1.5815      0.000120
     1.5820      0.000000
     1.5825      0.000000
     1.5830      0.000000
     1.5835      0.000000
     1.5840      0.000000
     1.5845      0.000180
     1.5850      0.000330
     1.5855      0.000020
     1.5860      0.000510
     1.5865      0.000000
     1.5870      0.000310
     1.5875      0.000040
     1.5880      0.000130
     1.5885      0.000000
     1.5890      0.000320
     1.5895      0.000000
     1.5900      0.000180
     1.5905      0.000000
     1.5910      0.000010
     1.5915      0.000200
     1.5920      0.000090
     1.5925      0.000300
     1.5930      0.000000
     1.5935      0.000000
     1.5940      0.000000
     1.5945      0.000000
     1.5950      0.000000
     1.5955      0.000000
     1.5960      0.000000
     1.5965      0.000000
     1.5970      0.000000
     1.5975      0.000200
     1.5980      0.000490
     1.5985      0.000320
     1.5990      0.000270
     1.5995      0.000050
     1.6000      0.000170
     1.6005      0.000490
     1.6010      0.000010
     1.6015      0.000290
     1.6020      0.000000
     1.6025      0.000000
     1.6030      0.000000
     1.6035      0.000200
     1.6040      0.000630
     1.6045      0.000320
     1.6050      0.000000
     1.6055      0.000040
     1.6060      0.000000
     1.6065      0.000490
     1.6070      0.000150
     1.6075      0.000340
     1.6080      0.000330
     1.6085      0.000000
     1.6090      0.000130
     1.6095      0.000010
     1.6100      0.000050
     1.6105      0.000000
     1.6110      0.000000
     1.6115      0.000110
     1.6120      0.000030
     1.6125      0.000050
     1.6130      0.000010
     1.6135      0.000010
     1.6140      0.000010
     1.6145      0.000050
     1.6150      0.000590
     1.6155      0.000110
     1.6160      0.000320
     1.6165      0.000070
     1.6170      0.000080
     1.6175      0.000110
     1.6180      0.000000
     1.6185      0.000020
     1.6190      0.000080
     1.6195      0.000730
     1.6200      0.000170
     1.6205      0.000000
     1.6210      0.000470
     1.6215      0.000000
     1.6220      0.000060
     1.6225      0.000150
     1.6230      0.000070
     1.6235      0.000000
     1.6240      0.000000
     1.6245      0.000090
     1.6250      0.000450
     1.6255      0.000650
     1.6260      0.000150
     1.6265      0.000720
     1.6270      0.000540
     1.6275      0.000220
     1.6280      0.000230
     1.6285      0.000230
     1.6290      0.000000
     1.6295      0.000350
     1.6300      0.000360
     1.6305      0.000000
     1.6310      0.000420
     1.6315      0.000210
     1.6320      0.000090
     1.6325      0.000150
     1.6330      0.000650
     1.6335      0.000400
     1.6340      0.000350
     1.6345      0.000010
     1.6350      0.000260
     1.6355      0.000270
     1.6360      0.000550
     1.6365      0.000010
     1.6370      0.000190
     1.6375      0.000040
     1.6380      0.000260
     1.6385      0.000180
     1.6390      0.000000
     1.6395      0.000010
     1.6400      0.000000
     1.6405      0.000250
     1.6410      0.000000
     1.6415      0.000000
     1.6420      0.000090
     1.6425      0.000370
     1.6430      0.000250
     1.6435      0.000000
     1.6440      0.000210
     1.6445      0.000150
     1.6450      0.000020
     1.6455      0.000460
     1.6460      0.000670
     1.6465      0.000030
     1.6470      0.000150
     1.6475      0.000270
     1.6480      0.000370
     1.6485      0.000000
     1.6490      0.000030
     1.6495      0.000130
     1.6500      0.000630
     1.6505      0.000650
     1.6510      0.000000
     1.6515      0.000070
     1.6520      0.000100
     1.6525      0.000000
     1.6530      0.000000
     1.6535      0.000010
     1.6540      0.000260
     1.6545      0.000510
     1.6550      0.000290
     1.6555      0.000660
     1.6560      0.000250
     1.6565      0.000760
     1.6570      0.000860
     1.6575      0.000400
     1.6580      0.000570
     1.6585      0.000800
     1.6590      0.000870
     1.6595      0.000270
     1.6600      0.000200
     1.6605      0.000890
     1.6610      0.000350
     1.6615      0.000420
     1.6620      0.001240
     1.6625      0.000870
     1.6630      0.000610
     1.6635      0.000170
     1.6640      0.000640
     1.6645      0.000610
     1.6650      0.000000
     1.6655      0.000120
     1.6660      0.000830
     1.6665      0.000360
     1.6670      0.000210
     1.6675      0.000450
     1.6680      0.000900
     1.6685      0.000550
     1.6690      0.000190
     1.6695      0.000990
     1.6700      0.001180
     1.6705      0.001030
     1.6710      0.001110
     1.6715      0.000820
     1.6720      0.000450
     1.6725      0.000110
     1.6730      0.000820
     1.6735      0.000530
     1.6740      0.000730
     1.6745      0.000760
     1.6750      0.000610
     1.6755      0.001270
     1.6760      0.000860
     1.6765      0.000610
     1.6770      0.000830
     1.6775      0.001300
     1.6780      0.000760
     1.6785      0.000500
     1.6790      0.000340
     1.6795      0.000000
     1.6800      0.000050
     1.6805      0.000000
     1.6810      0.000040
     1.6815      0.000000
     1.6820      0.000130
     1.6825      0.000450
     1.6830      0.001170
     1.6835      0.001010
     1.6840      0.000660
     1.6845      0.000000
     1.6850      0.000220
     1.6855      0.000210
     1.6860      0.000830
     1.6865      0.000340
     1.6870      0.000570
     1.6875      0.000990
     1.6880      0.000630
     1.6885      0.000440
     1.6890      0.000610
     1.6895      0.000550
     1.6900      0.000540
     1.6905      0.000180
     1.6910      0.000360
     1.6915      0.000940
     1.6920      0.001030
     1.6925      0.000590
     1.6930      0.000770
     1.6935      0.000220
     1.6940      0.001260
     1.6945      0.000910
     1.6950      0.000360
     1.6955      0.000240
     1.6960      0.000000
     1.6965      0.000330
     1.6970      0.000350
     1.6975      0.000240
     1.6980      0.000750
     1.6985      0.001120
     1.6990      0.001040
     1.6995      0.000500
     1.7000      0.000830
     1.7005      0.001030
     1.7010      0.000870
     1.7015      0.000760
     1.7020      0.000520
     1.7025      0.001110
     1.7030      0.000630
     1.7035      0.000570
     1.7040      0.000030
     1.7045      0.000120
     1.7050      0.000830
     1.7055      0.000730
     1.7060      0.000240
     1.7065      0.000720
     1.7070      0.000930
     1.7075      0.000930
     1.7080      0.001190
     1.7085      0.001350
     1.7090      0.000960
     1.7095      0.001080
     1.7100      0.001270
     1.7105      0.001060
     1.7110      0.001000
     1.7115      0.000680
     1.7120      0.000640
     1.7125      0.000440
     1.7130      0.000640
     1.7135      0.000790
     1.7140      0.000940
     1.7145      0.000800
     1.7150      0.001180
     1.7155      0.000860
     1.7160      0.000870
     1.7165      0.000660
     1.7170      0.000490
     1.7175      0.000870
     1.7180      0.000840
     1.7185      0.000780
     1.7190      0.000500
     1.7195      0.000450
     1.7200      0.000430
     1.7205      0.000980
     1.7210      0.000720
     1.7215      0.000770
     1.7220      0.000780
     1.7225      0.000960
     1.7230      0.001060
     1.7235      0.001230
     1.7240      0.000990
     1.7245      0.000810
     1.7250      0.000670
     1.7255      0.000820
     1.7260      0.000770
     1.7265      0.000040
     1.7270      0.000600
     1.7275      0.000490
     1.7280      0.000670
     1.7285      0.001510
     1.7290      0.001110
     1.7295      0.000840
     1.7300      0.000710
     1.7305      0.000970
     1.7310      0.000690
     1.7315      0.000970
     1.7320      0.000930
     1.7325      0.001090
     1.7330      0.001110
     1.7335      0.000870
     1.7340      0.000690
     1.7345      0.000560
     1.7350      0.000570
     1.7355      0.000590
     1.7360      0.000790
     1.7365      0.000970
     1.7370      0.001160
     1.7375      0.000580
     1.7380      0.000270
     1.7385      0.000150
     1.7390      0.000030
     1.7395      0.000290
     1.7400      0.000690
     1.7405      0.000740
     1.7410      0.000700
     1.7415      0.000390
     1.7420      0.000290
     1.7425      0.000540
     1.7430      0.001280
     1.7435      0.000520
     1.7440      0.000750
     1.7445      0.000740
     1.7450      0.000420
     1.7455      0.000530
     1.7460      0.000230
     1.7465      0.000980
     1.7470      0.001050
     1.7475      0.000960
     1.7480      0.001060
     1.7485      0.000480
     1.7490      0.000530
     1.7495      0.000540
     1.7500      0.000960
     1.7505      0.000340
     1.7510      0.000340
     1.7515      0.000850
     1.7520      0.000550
     1.7525      0.000520
     1.7530      0.000340
     1.7535      0.000910
     1.7540      0.001160
     1.7545      0.001480
     1.7550      0.000670
     1.7555      0.000570
     1.7560      0.000180
     1.7565      0.001180
     1.7570      0.001380
     1.7575      0.000560
     1.7580      0.000090
     1.7585      0.000600
     1.7590      0.000870
     1.7595      0.001150
     1.7600      0.000550
     1.7605      0.000450
     1.7610      0.001010
     1.7615      0.001300
     1.7620      0.001160
     1.7625      0.001570
     1.7630      0.001380
     1.7635      0.001050
     1.7640      0.000870
     1.7645      0.001050
     1.7650      0.001020
     1.7655      0.000660
     1.7660      0.001040
     1.7665      0.001060
     1.7670      0.000880
     1.7675      0.000760
     1.7680      0.000920
     1.7685      0.001050
     1.7690      0.000870
     1.7695      0.000690
     1.7700      0.001010
     1.7705      0.001170
     1.7710      0.001290
     1.7715      0.001230
     1.7720      0.000880
     1.7725      0.001010
     1.7730      0.000990
     1.7735      0.001180
     1.7740      0.001470
     1.7745      0.001180
     1.7750      0.000790
     1.7755      0.000610
     1.7760      0.000580
     1.7765      0.000490
     1.7770      0.001090
     1.7775      0.001380
     1.7780      0.001320
     1.7785      0.000760
     1.7790      0.000240
     1.7795      0.000680
     1.7800      0.000740
     1.7805      0.001110
     1.7810      0.000730
     1.7815      0.000920
     1.7820      0.000730
     1.7825      0.000990
     1.7830      0.000650
     1.7835      0.000830
     1.7840      0.001470
     1.7845      0.000930
     1.7850      0.000240
     1.7855      0.000450
     1.7860      0.000560
     1.7865      0.000680
     1.7870      0.000990
     1.7875      0.000810
     1.7880      0.000880
     1.7885      0.000480
     1.7890      0.000900
     1.7895      0.000820
     1.7900      0.000490
     1.7905      0.000370
     1.7910      0.000450
     1.7915      0.000680
     1.7920      0.000640
     1.7925      0.000160
     1.7930      0.000940
     1.7935      0.000660
     1.7940      0.000610
     1.7945      0.000430
     1.7950      0.000720
     1.7955      0.001190
     1.7960      0.000610
     1.7965      0.000000
     1.7970      0.000220
     1.7975      0.000430
     1.7980      0.000690
     1.7985      0.000540
     1.7990      0.000450
     1.7995      0.000440
     1.8000      0.000300
     1.8005      0.000450
     1.8010      0.000260
     1.8015      0.000670
     1.8020      0.000320
     1.8025      0.000740
     1.8030      0.001150
     1.8035      0.000830
     1.8040      0.000740
     1.8045      0.000270
     1.8050      0.000000
     1.8055      0.000170
     1.8060      0.000270
     1.8065      0.000570
     1.8070      0.000550
     1.8075      0.000480
     1.8080      0.000870
     1.8085      0.000740
     1.8090      0.000620
     1.8095      0.000900
     1.8100      0.000820
     1.8105      0.000750
     1.8110      0.000330
     1.8115      0.000380
     1.8120      0.000920
     1.8125      0.000820
     1.8130      0.000800
     1.8135      0.000670
     1.8140      0.000760
     1.8145      0.000700
     1.8150      0.000370
     1.8155      0.000940
     1.8160      0.000890
     1.8165      0.000710
     1.8170      0.000610
     1.8175      0.000900
     1.8180      0.001300
     1.8185      0.001420
     1.8190      0.001180
     1.8195      0.001100
     1.8200      0.001340
     1.8205      0.000940
     1.8210      0.000610
     1.8215      0.000960
     1.8220      0.001430
     1.8225      0.000960
     1.8230      0.001210
     1.8235      0.001450
     1.8240      0.000990
     1.8245      0.000960
     1.8250      0.000900
     1.8255      0.001050
     1.8260      0.000620
     1.8265      0.000220
     1.8270      0.000500
     1.8275      0.000860
     1.8280      0.000940
     1.8285      0.000730
     1.8290      0.000990
     1.8295      0.000770
     1.8300      0.000680
     1.8305      0.000560
     1.8310      0.000890
     1.8315      0.000750
     1.8320      0.000530
     1.8325      0.000900
     1.8330      0.001250
     1.8335      0.000330
     1.8340      0.000190
     1.8345      0.000510
     1.8350      0.000760
     1.8355      0.000100
     1.8360      0.000070
     1.8365      0.000770
     1.8370      0.000570
     1.8375      0.000010
     1.8380      0.000620
     1.8385      0.000610
     1.8390      0.000900
     1.8395      0.000560
     1.8400      0.000080
     1.8405      0.000720
     1.8410      0.000940
     1.8415      0.001150
     1.8420      0.000940
     1.8425      0.000720
     1.8430      0.000690
     1.8435      0.000520
     1.8440      0.000270
     1.8445      0.000390
     1.8450      0.000130
     1.8455      0.000000
     1.8460      0.000000
     1.8465      0.000000
     1.8470      0.000000
     1.8475      0.000060
     1.8480      0.000390
     1.8485      0.000000
     1.8490      0.000000
     1.8495      0.000000
     1.8500      0.000170
     1.8505      0.000040
     1.8510      0.000000
     1.8515      0.000000
     1.8520      0.000190
     1.8525      0.000570
     1.8530      0.000020
     1.8535      0.000030
     1.8540      0.000230
     1.8545      0.000050
     1.8550      0.000000
     1.8555      0.000080
     1.8560      0.000060
     1.8565      0.000000
     1.8570      0.000000
     1.8575      0.000250
     1.8580      0.000440
     1.8585      0.000050
     1.8590      0.000140
     1.8595      0.000030
     1.8600      0.000250
     1.8605      0.000080
     1.8610      0.000220
     1.8615      0.000270
     1.8620      0.000000
     1.8625      0.000150
     1.8630      0.000480
     1.8635      0.000810
     1.8640      0.000680
     1.8645      0.000230
     1.8650      0.000220
     1.8655      0.000420
     1.8660      0.000410
     1.8665      0.000260
     1.8670      0.000500
     1.8675      0.000150
     1.8680      0.000070
     1.8685      0.000320
     1.8690      0.000500
     1.8695      0.000360
     1.8700      0.000410
     1.8705      0.000350
     1.8710      0.000000
     1.8715      0.000030
     1.8720      0.000050
     1.8725      0.000070
     1.8730      0.000000
     1.8735      0.000000
     1.8740      0.000000
     1.8745      0.000000
     1.8750      0.000000
     1.8755      0.000040
     1.8760      0.000000
     1.8765      0.000060
     1.8770      0.000040
     1.8775      0.000000
     1.8780      0.000000
     1.8785      0.000010
     1.8790      0.000170
     1.8795      0.000000
     1.8800      0.000050
     1.8805      0.000320
     1.8810      0.000100
     1.8815      0.000000
     1.8820      0.000000
     1.8825      0.000000
     1.8830      0.000000
     1.8835      0.000000
     1.8840      0.000090
     1.8845      0.000250
     1.8850      0.000050
     1.8855      0.000000
     1.8860      0.000000
     1.8865      0.000060
     1.8870      0.000120
     1.8875      0.000000
     1.8880      0.000070
     1.8885      0.000030
     1.8890      0.000110
     1.8895      0.000380
     1.8900      0.000270
     1.8905      0.000100
     1.8910      0.000100
     1.8915      0.000170
     1.8920      0.000480
     1.8925      0.000370
     1.8930      0.000260
     1.8935      0.000040
     1.8940      0.000090
     1.8945      0.000120
     1.8950      0.000000
     1.8955      0.000000
     1.8960      0.000150
     1.8965      0.000050
     1.8970      0.000100
     1.8975      0.000110
     1.8980      0.000000
     1.8985      0.000140
     1.8990      0.000000
     1.8995      0.000280
     1.9000      0.000050
     1.9005      0.000000
     1.9010      0.000000
     1.9015      0.000000
     1.9020      0.000100
     1.9025      0.000560
     1.9030      0.000500
     1.9035      0.000310
     1.9040      0.000010
     1.9045      0.000140
     1.9050      0.000280
     1.9055      0.000070
     1.9060      0.000010
     1.9065      0.000000
     1.9070      0.000040
     1.9075      0.000070
     1.9080      0.000000
     1.9085      0.000110
     1.9090      0.000430
     1.9095      0.000260
     1.9100      0.000000
     1.9105      0.000000
     1.9110      0.000310
     1.9115      0.000280
     1.9120      0.000000
     1.9125      0.000000
     1.9130      0.000010
     1.9135      0.000300
     1.9140      0.000340
     1.9145      0.000250
     1.9150      0.000180
     1.9155      0.000130
     1.9160      0.000000
     1.9165      0.000000
     1.9170      0.000070
     1.9175      0.000130
     1.9180      0.000000
     1.9185      0.000060
     1.9190      0.000040
     1.9195      0.000000
     1.9200      0.000030
     1.9205      0.000010
     1.9210      0.000000
     1.9215      0.000000
     1.9220      0.000070
     1.9225      0.000260
     1.9230      0.000040
     1.9235      0.000110
     1.9240      0.000200
     1.9245      0.000510
     1.9250      0.000770
     1.9255      0.000330
     1.9260      0.000000
     1.9265      0.000000
     1.9270      0.000000
     1.9275      0.000010
     1.9280      0.000000
     1.9285      0.000080
     1.9290      0.000310
     1.9295      0.000000
     1.9300      0.000010
     1.9305      0.000010
     1.9310      0.000110
     1.9315      0.000330
     1.9320      0.000000
     1.9325      0.000010
     1.9330      0.000010
     1.9335      0.000000
     1.9340      0.000110
     1.9345      0.000050
     1.9350      0.000080
     1.9355      0.000440
     1.9360      0.000210
     1.9365      0.000000
     1.9370      0.000000
     1.9375      0.000010
     1.9380      0.000080
     1.9385      0.000110
     1.9390      0.000110
     1.9395      0.000080
     1.9400      0.000040
     1.9405      0.000000
     1.9410      0.000080
     1.9415      0.000510
     1.9420      0.000240
     1.9425      0.000120
     1.9430      0.000210
     1.9435      0.000290
     1.9440      0.000380
     1.9445      0.000400
     1.9450      0.000740
     1.9455      0.000760
     1.9460      0.000310
     1.9465      0.000010
     1.9470      0.000000
     1.9475      0.000000
     1.9480      0.000020
     1.9485      0.000300
     1.9490      0.000210
     1.9495      0.000010
     1.9500      0.000030
     1.9505      0.000120
     1.9510      0.000000
     1.9515      0.000000
     1.9520      0.000430
     1.9525      0.000450
     1.9530      0.000020
     1.9535      0.000010
     1.9540      0.000130
     1.9545      0.000270
     1.9550      0.000240
     1.9555      0.000000
     1.9560      0.000000
     1.9565      0.000040
     1.9570      0.000000
     1.9575      0.000100
     1.9580      0.000180
     1.9585      0.000120
     1.9590      0.000000
     1.9595      0.000000
     1.9600      0.000010
     1.9605      0.000110
     1.9610      0.000050
     1.9615      0.000240
     1.9620      0.000000
     1.9625      0.000100
     1.9630      0.000230
     1.9635      0.000090
     1.9640      0.000050
     1.9645      0.000020
     1.9650      0.000000
     1.9655      0.000130
     1.9660      0.000140
     1.9665      0.000030
     1.9670      0.000000
     1.9675      0.000000
     1.9680      0.000240
     1.9685      0.000520
     1.9690      0.000510
     1.9695      0.000000
     1.9700      0.000100
     1.9705      0.000050
     1.9710      0.000000
     1.9715      0.000020
     1.9720      0.000190
     1.9725      0.000570
     1.9730      0.000510
     1.9735      0.000430
     1.9740      0.000140
     1.9745      0.000000
     1.9750      0.000130
     1.9755      0.000390
     1.9760      0.000070
     1.9765      0.000170
     1.9770      0.000350
     1.9775      0.000140
     1.9780      0.000130
     1.9785      0.000210
     1.9790      0.000140
     1.9795      0.000030
     1.9800      0.000000
     1.9805      0.000000
     1.9810      0.000000
     1.9815      0.000050
     1.9820      0.000160
     1.9825      0.000200
     1.9830      0.000040
     1.9835      0.000050
     1.9840      0.000340
     1.9845      0.000320
     1.9850      0.000000
     1.9855      0.000000
     1.9860      0.000250
     1.9865      0.000210
     1.9870      0.000000
     1.9875      0.000040
     1.9880      0.000490
     1.9885      0.000130
     1.9890      0.000000
     1.9895      0.000290
     1.9900      0.000240
     1.9905      0.000000
     1.9910      0.000110
     1.9915      0.000040
     1.9920      0.000040
     1.9925      0.000260
     1.9930      0.000000
     1.9935      0.000000
     1.9940      0.000140
     1.9945      0.000000
     1.9950      0.000100
     1.9955      0.000110
     1.9960      0.000000
     1.9965      0.000210
     1.9970      0.000490
     1.9975      0.000300
     1.9980      0.000000
     1.9985      0.000060
     1.9990      0.000210
     1.9995      0.000450
     2.0000      0.000210
     2.0005      0.000000
     2.0010      0.000000
     2.0015      0.000110
     2.0020      0.000200
     2.0025      0.000220
     2.0030      0.000070
     2.0035      0.000000
     2.0040      0.000000
     2.0045      0.000010
     2.0050      0.000220
     2.0055      0.000490
     2.0060      0.000420
     2.0065      0.000370
     2.0070      0.000480
     2.0075      0.000320
     2.0080      0.000190
     2.0085      0.000210
     2.0090      0.000050
     2.0095      0.000000
     2.0100      0.000000
     2.0105      0.000000
     2.0110      0.000000
     2.0115      0.000000
     2.0120      0.000000
     2.0125      0.000030
     2.0130      0.000220
     2.0135      0.000240
     2.0140      0.000360
     2.0145      0.000070
     2.0150      0.000010
     2.0155      0.000160
     2.0160      0.000060
     2.0165      0.000020
     2.0170      0.000080
     2.0175      0.000590
     2.0180      0.000370
     2.0185      0.000000
     2.0190      0.000120
     2.0195      0.000380
     2.0200      0.000340
     2.0205      0.000000
     2.0210      0.000000
     2.0215      0.000000
     2.0220      0.000220
     2.0225      0.000080
     2.0230      0.000060
     2.0235      0.000020
     2.0240      0.000000
     2.0245      0.000000
     2.0250      0.000000
     2.0255      0.000080
     2.0260      0.000140
     2.0265      0.000110
     2.0270      0.000370
     2.0275      0.000090
     2.0280      0.000000
     2.0285      0.000060
     2.0290      0.000090
     2.0295      0.000000
     2.0300      0.000000
     2.0305      0.000000
     2.0310      0.000040
     2.0315      0.000050
     2.0320      0.000000
     2.0325      0.000000
     2.0330      0.000000
     2.0335      0.000000
     2.0340      0.000030
     2.0345      0.000030
     2.0350      0.000000
     2.0355      0.000000
     2.0360      0.000040
     2.0365      0.000230
     2.0370      0.000040
     2.0375      0.000040
     2.0380      0.000360
     2.0385      0.000170
     2.0390      0.000000
     2.0395      0.000000
     2.0400      0.000000
     2.0405      0.000000
     2.0410      0.000000
     2.0415      0.000000
     2.0420      0.000000
     2.0425      0.000000
     2.0430      0.000000
     2.0435      0.000070
     2.0440      0.000320
     2.0445      0.000270
     2.0450      0.000010
     2.0455      0.000000
     2.0460      0.000000
     2.0465      0.000000
     2.0470      0.000040
     2.0475      0.000020
     2.0480      0.000000
     2.0485      0.000000
     2.0490      0.000000
     2.0495      0.000000
     2.0500      0.000000
     2.0505      0.000190
     2.0510      0.000230
     2.0515      0.000140
     2.0520      0.000020
     2.0525      0.000040
     2.0530      0.000690
     2.0535      0.000680
     2.0540      0.000270
     2.0545      0.000230
     2.0550      0.000260
     2.0555      0.000280
     2.0560      0.000240
     2.0565      0.000040
     2.0570      0.000000
     2.0575      0.000000
     2.0580      0.000030
     2.0585      0.000220
     2.0590      0.000080
     2.0595      0.000000
     2.0600      0.000110
     2.0605      0.000450
     2.0610      0.000440
     2.0615      0.000000
     2.0620      0.000000
     2.0625      0.000000
     2.0630      0.000000
     2.0635      0.000000
     2.0640      0.000000
     2.0645      0.000000
     2.0650      0.000000
     2.0655      0.000000
     2.0660      0.000000
     2.0665      0.000010
     2.0670      0.000120
     2.0675      0.000110
     2.0680      0.000000
     2.0685      0.000010
     2.0690      0.000000
     2.0695      0.000000
     2.0700      0.000000
     2.0705      0.000000
     2.0710      0.000000
     2.0715      0.000030
     2.0720      0.000030
     2.0725      0.000000
     2.0730      0.000000
     2.0735      0.000000
     2.0740      0.000000
     2.0745      0.000000
     2.0750      0.000000
     2.0755      0.000000
     2.0760      0.000070
     2.0765      0.000080
     2.0770      0.000000
     2.0775      0.000000
     2.0780      0.000170
     2.0785      0.000080
     2.0790      0.000030
     2.0795      0.000100
     2.0800      0.000090
     2.0805      0.000000
     2.0810      0.000020
     2.0815      0.000200
     2.0820      0.000160
     2.0825      0.000010
     2.0830      0.000000
     2.0835      0.000040
     2.0840      0.000090
     2.0845      0.000000
     2.0850      0.000000
     2.0855      0.000000
     2.0860      0.000000
     2.0865      0.000000
     2.0870      0.000000
     2.0875      0.000000
     2.0880      0.000420
     2.0885      0.000390
     2.0890      0.000090
     2.0895      0.000000
     2.0900      0.000000
     2.0905      0.000000
     2.0910      0.000000
     2.0915      0.000080
     2.0920      0.000440
     2.0925      0.000580
     2.0930      0.000210
     2.0935      0.000000
     2.0940      0.000000
     2.0945      0.000000
     2.0950      0.000000
     2.0955      0.000000
     2.0960      0.000000
     2.0965      0.000000
     2.0970      0.000000
     2.0975      0.000000
     2.0980      0.000000
     2.0985      0.000000
     2.0990      0.000000
     2.0995      0.000000
     2.1000      0.000000
     2.1005      0.000000
     2.1010      0.000170
     2.1015      0.000030
     2.1020      0.000000
     2.1025      0.000070
     2.1030      0.000250
     2.1035      0.000060
     2.1040      0.000000
     2.1045      0.000000
     2.1050      0.000200
     2.1055      0.000510
     2.1060      0.000660
     2.1065      0.000260
     2.1070      0.000010
     2.1075      0.000090
     2.1080      0.000360
     2.1085      0.000130
     2.1090      0.000020
     2.1095      0.000020
     2.1100      0.000000
     2.1105      0.000240
     2.1110      0.000330
     2.1115      0.000110
     2.1120      0.000000
     2.1125      0.000000
     2.1130      0.000000
     2.1135      0.000000
     2.1140      0.000080
     2.1145      0.000180
     2.1150      0.000150
     2.1155      0.000040
     2.1160      0.000200
     2.1165      0.000280
     2.1170      0.000000
     2.1175      0.000000
     2.1180      0.000010
     2.1185      0.000000
     2.1190      0.000140
     2.1195      0.000280
     2.1200      0.000050
     2.1205      0.000020
     2.1210      0.000320
     2.1215      0.000390
     2.1220      0.000110
     2.1225      0.000000
     2.1230      0.000000
     2.1235      0.000000
     2.1240      0.000000
     2.1245      0.000000
     2.1250      0.000000
     2.1255      0.000000
     2.1260      0.000000
     2.1265      0.000110
     2.1270      0.000300
     2.1275      0.000000
     2.1280      0.000000
     2.1285      0.000220
     2.1290      0.000630
     2.1295      0.000790
     2.1300      0.000470
     2.1305      0.000050
     2.1310      0.000060
     2.1315      0.000000
     2.1320      0.000080
     2.1325      0.000250
     2.1330      0.000160
     2.1335      0.000060
     2.1340      0.000000
     2.1345      0.000020
     2.1350      0.000090
     2.1355      0.000130
     2.1360      0.000050
     2.1365      0.000000
     2.1370      0.000350
     2.1375      0.000670
     2.1380      0.000780
     2.1385      0.000350
     2.1390      0.000010
     2.1395      0.000000
     2.1400      0.000000
     2.1405      0.000000
     2.1410      0.000000
     2.1415      0.000000
     2.1420      0.000000
     2.1425      0.000000
     2.1430      0.000000
     2.1435      0.000000
     2.1440      0.000000
     2.1445      0.000000
     2.1450      0.000150
     2.1455      0.000000
     2.1460      0.000000
     2.1465      0.000000
     2.1470      0.000040
     2.1475      0.000200
     2.1480      0.000160
     2.1485      0.000100
     2.1490      0.000370
     2.1495      0.000430
     2.1500      0.000320
     2.1505      0.000200
     2.1510      0.000190
     2.1515      0.000340
     2.1520      0.000540
     2.1525      0.000520
     2.1530      0.000200
     2.1535      0.000000
     2.1540      0.000120
     2.1545      0.000000
     2.1550      0.000060
     2.1555      0.000420
     2.1560      0.000490
     2.1565      0.000100
     2.1570      0.000000
     2.1575      0.000180
     2.1580      0.000240
     2.1585      0.000070
     2.1590      0.000090
     2.1595      0.000030
     2.1600      0.000000
     2.1605      0.000000
     2.1610      0.000000
     2.1615      0.000090
     2.1620      0.000110
     2.1625      0.000000
     2.1630      0.000000
     2.1635      0.000000
     2.1640      0.000000
     2.1645      0.000000
     2.1650      0.000050
     2.1655      0.000180
     2.1660      0.000130
     2.1665      0.000050
     2.1670      0.000170
     2.1675      0.000130
     2.1680      0.000000
     2.1685      0.000040
     2.1690      0.000120
     2.1695      0.000100
     2.1700      0.000020
     2.1705      0.000000
     2.1710      0.000000
     2.1715      0.000000
     2.1720      0.000000
     2.1725      0.000000
     2.1730      0.000000
     2.1735      0.000070
     2.1740      0.000190
     2.1745      0.000060
     2.1750      0.000000
     2.1755      0.000000
     2.1760      0.000000
     2.1765      0.000130
     2.1770      0.000000
     2.1775      0.000000
     2.1780      0.000000
     2.1785      0.000000
     2.1790      0.000010
     2.1795      0.000000
     2.1800      0.000000
     2.1805      0.000000
     2.1810      0.000000
     2.1815      0.000210
     2.1820      0.000140
     2.1825      0.000000
     2.1830      0.000030
     2.1835      0.000360
     2.1840      0.000320
     2.1845      0.000000
     2.1850      0.000000
     2.1855      0.000000
     2.1860      0.000000
     2.1865      0.000000
     2.1870      0.000110
     2.1875      0.000030
     2.1880      0.000000
     2.1885      0.000000
     2.1890      0.000000
     2.1895      0.000010
     2.1900      0.000090
     2.1905      0.000190
     2.1910      0.000020
     2.1915      0.000000
     2.1920      0.000000
     2.1925      0.000000
     2.1930      0.000000
     2.1935      0.000010
     2.1940      0.000000
     2.1945      0.000000
     2.1950      0.000040
     2.1955      0.000120
     2.1960      0.000220
     2.1965      0.000250
     2.1970      0.000070
     2.1975      0.000000
     2.1980      0.000120
     2.1985      0.000340
     2.1990      0.000370
     2.1995      0.000100
     2.2000      0.000000
     2.2005      0.000000
     2.2010      0.000000
     2.2015      0.000000
     2.2020      0.000040
     2.2025      0.000010
     2.2030      0.000030
     2.2035      0.000190
     2.2040      0.000270
     2.2045      0.000080
     2.2050      0.000000
     2.2055      0.000040
     2.2060      0.000040
     2.2065      0.000000
     2.2070      0.000010
     2.2075      0.000020
     2.2080      0.000000
     2.2085      0.000100
     2.2090      0.000240
     2.2095      0.000000
     2.2100      0.000000
     2.2105      0.000000
     2.2110      0.000070
     2.2115      0.000230
     2.2120      0.000060
     2.2125      0.000180
     2.2130      0.000170
     2.2135      0.000000
     2.2140      0.000000
     2.2145      0.000000
     2.2150      0.000000
     2.2155      0.000000
     2.2160      0.000000
     2.2165      0.000000
     2.2170      0.000070
     2.2175      0.000000
     2.2180      0.000000
     2.2185      0.000000
     2.2190      0.000050
     2.2195      0.000390
     2.2200      0.000450
     2.2205      0.000330
     2.2210      0.000130
     2.2215      0.000000
     2.2220      0.000000
     2.2225      0.000000
     2.2230      0.000000
     2.2235      0.000000
     2.2240      0.000000
     2.2245      0.000130
     2.2250      0.000200
     2.2255      0.000040
     2.2260      0.000000
     2.2265      0.000010
     2.2270      0.000190
     2.2275      0.000300
     2.2280      0.000000
     2.2285      0.000000
     2.2290      0.000000
     2.2295      0.000000
     2.2300      0.000000
     2.2305      0.000000
     2.2310      0.000000
     2.2315      0.000000
     2.2320      0.000000
     2.2325      0.000010
     2.2330      0.000010
     2.2335      0.000000
     2.2340      0.000000
     2.2345      0.000050
     2.2350      0.000230
     2.2355      0.000190
     2.2360      0.000040
     2.2365      0.000000
     2.2370      0.000000
     2.2375      0.000020
     2.2380      0.000170
     2.2385      0.000170
     2.2390      0.000140
     2.2395      0.000010
     2.2400      0.000040
     2.2405      0.000110
     2.2410      0.000000
     2.2415      0.000000
     2.2420      0.000000
     2.2425      0.000000
     2.2430      0.000000
     2.2435      0.000000
     2.2440      0.000000
     2.2445      0.000070
     2.2450      0.000280
     2.2455      0.000170
     2.2460      0.000000
     2.2465      0.000000
     2.2470      0.000000
     2.2475      0.000020
     2.2480      0.000110
     2.2485      0.000110
     2.2490      0.000000
     2.2495      0.000000
     2.2500      0.000000
     2.2505      0.000000
     2.2510      0.000050
     2.2515      0.000070
     2.2520      0.000020
     2.2525      0.000000
     2.2530      0.000000
     2.2535      0.000000
     2.2540      0.000000
     2.2545      0.000000
     2.2550      0.000000
     2.2555      0.000000
     2.2560      0.000000
     2.2565      0.000140
     2.2570      0.000270
     2.2575      0.000170
     2.2580      0.000220
     2.2585      0.000120
     2.2590      0.000010
     2.2595      0.000130
     2.2600      0.000390
     2.2605      0.000200
     2.2610      0.000080
     2.2615      0.000200
     2.2620      0.000200
     2.2625      0.000020
     2.2630      0.000000
     2.2635      0.000000
     2.2640      0.000000
     2.2645      0.000000
     2.2650      0.000000
     2.2655      0.000120
     2.2660      0.000040
     2.2665      0.000120
     2.2670      0.000100
     2.2675      0.000000
     2.2680      0.000030
     2.2685      0.000300
     2.2690      0.000150
     2.2695      0.000020
     2.2700      0.000170
     2.2705      0.000240
     2.2710      0.000270
     2.2715      0.000510
     2.2720      0.000310
     2.2725      0.000020
     2.2730      0.000120
     2.2735      0.000150
     2.2740      0.000240
     2.2745      0.000340
     2.2750      0.000110
     2.2755      0.000050
     2.2760      0.000090
     2.2765      0.000020
     2.2770      0.000140
     2.2775      0.000100
     2.2780      0.000000
     2.2785      0.000000
     2.2790      0.000000
     2.2795      0.000000
     2.2800      0.000000
     2.2805      0.000000
     2.2810      0.000000
     2.2815      0.000000
     2.2820      0.000050
     2.2825      0.000150
     2.2830      0.000050
     2.2835      0.000150
     2.2840      0.000240
     2.2845      0.000400
     2.2850      0.000230
     2.2855      0.000000
     2.2860      0.000020
     2.2865      0.000210
     2.2870      0.000000
     2.2875      0.000000
     2.2880      0.000000
     2.2885      0.000000
     2.2890      0.000000
     2.2895      0.000000
     2.2900      0.000120
     2.2905      0.000490
     2.2910      0.000270
     2.2915      0.000000
     2.2920      0.000140
     2.2925      0.000330
     2.2930      0.000200
     2.2935      0.000210
     2.2940      0.000340
     2.2945      0.000140
     2.2950      0.000010
     2.2955      0.000000
     2.2960      0.000000
     2.2965      0.000000
     2.2970      0.000150
     2.2975      0.000580
     2.2980      0.000480
     2.2985      0.000100
     2.2990      0.000080
     2.2995      0.000320
     2.3000      0.000120
     2.3005      0.000000
     2.3010      0.000000
     2.3015      0.000070
     2.3020      0.000100
     2.3025      0.000040
     2.3030      0.000030
     2.3035      0.000030
     2.3040      0.000000
     2.3045      0.000170
     2.3050      0.000520
     2.3055      0.000620
     2.3060      0.000430
     2.3065      0.000230
     2.3070      0.000090
     2.3075      0.000130
     2.3080      0.000190
     2.3085      0.000070
     2.3090      0.000050
     2.3095      0.000320
     2.3100      0.000710
     2.3105      0.000430
     2.3110      0.000030
     2.3115      0.000010
     2.3120      0.000070
     2.3125      0.000120
     2.3130      0.000000
     2.3135      0.000000
     2.3140      0.000260
     2.3145      0.000230
     2.3150      0.000020
     2.3155      0.000000
     2.3160      0.000000
     2.3165      0.000190
     2.3170      0.000120
     2.3175      0.000020
     2.3180      0.000000
     2.3185      0.000000
     2.3190      0.000080
     2.3195      0.000100
     2.3200      0.000040
     2.3205      0.000000
     2.3210      0.000000
     2.3215      0.000040
     2.3220      0.000130
     2.3225      0.000180
     2.3230      0.000110
     2.3235      0.000000
     2.3240      0.000000
     2.3245      0.000070
     2.3250      0.000370
     2.3255      0.000520
     2.3260      0.000430
     2.3265      0.000410
     2.3270      0.000250
     2.3275      0.000170
     2.3280      0.000390
     2.3285      0.000570
     2.3290      0.000630
     2.3295      0.000690
     2.3300      0.000710
     2.3305      0.000320
     2.3310      0.000050
     2.3315      0.000000
     2.3320      0.000000
     2.3325      0.000000
     2.3330      0.000000
     2.3335      0.000000
     2.3340      0.000000
     2.3345      0.000000
     2.3350      0.000030
     2.3355      0.000190
     2.3360      0.000530
     2.3365      0.000640
     2.3370      0.000590
     2.3375      0.000340
     2.3380      0.000010
     2.3385      0.000000
     2.3390      0.000060
     2.3395      0.000390
     2.3400      0.000440
     2.3405      0.000400
     2.3410      0.000420
     2.3415      0.000330
     2.3420      0.000120
     2.3425      0.000000
     2.3430      0.000000
     2.3435      0.000000
     2.3440      0.000000
     2.3445      0.000000
     2.3450      0.000080
     2.3455      0.000370
     2.3460      0.000570
     2.3465      0.000430
     2.3470      0.000200
     2.3475      0.000030
     2.3480      0.000000
     2.3485      0.000000
     2.3490      0.000000
     2.3495      0.000000
     2.3500      0.000030
     2.3505      0.000030
     2.3510      0.000010
     2.3515      0.000000
     2.3520      0.000000
     2.3525      0.000000
     2.3530      0.000000
     2.3535      0.000000
     2.3540      0.000020
     2.3545      0.000140
     2.3550      0.000060
     2.3555      0.000000
     2.3560      0.000170
     2.3565      0.000340
     2.3570      0.000380
     2.3575      0.000350
     2.3580      0.000270
     2.3585      0.000190
     2.3590      0.000130
     2.3595      0.000060
     2.3600      0.000000
     2.3605      0.000000
     2.3610      0.000000
     2.3615      0.000000
     2.3620      0.000000
     2.3625      0.000000
     2.3630      0.000000
     2.3635      0.000020
     2.3640      0.000380
     2.3645      0.000510
     2.3650      0.000330
     2.3655      0.000230
     2.3660      0.000280
     2.3665      0.000190
     2.3670      0.000000
     2.3675      0.000050
     2.3680      0.000240
     2.3685      0.000380
     2.3690      0.000210
     2.3695      0.000010
     2.3700      0.000000
     2.3705      0.000200
     2.3710      0.000440
     2.3715      0.000390
     2.3720      0.000300
     2.3725      0.000260
     2.3730      0.000130
     2.3735      0.000000
     2.3740      0.000060
     2.3745      0.000270
     2.3750      0.000310
     2.3755      0.000240
     2.3760      0.000330
     2.3765      0.000390
     2.3770      0.000330
     2.3775      0.000200
     2.3780      0.000060
     2.3785      0.000000
     2.3790      0.000020
     2.3795      0.000070
     2.3800      0.000090
     2.3805      0.000060
     2.3810      0.000070
     2.3815      0.000000
     2.3820      0.000000
     2.3825      0.000000
     2.3830      0.000100
     2.3835      0.000260
     2.3840      0.000240
     2.3845      0.000200
     2.3850      0.000230
     2.3855      0.000190
     2.3860      0.000100
     2.3865      0.000000
     2.3870      0.000000
     2.3875      0.000000
     2.3880      0.000000
     2.3885      0.000000
     2.3890      0.000000
     2.3895      0.000000
     2.3900      0.000000
     2.3905      0.000000
     2.3910      0.000000
     2.3915      0.000000
     2.3920      0.000020
     2.3925      0.000160
     2.3930      0.000030
     2.3935      0.000000
     2.3940      0.000010
     2.3945      0.000080
     2.3950      0.000060
     2.3955      0.000020
     2.3960      0.000030
     2.3965      0.000000
     2.3970      0.000000
     2.3975      0.000000
     2.3980      0.000000
     2.3985      0.000000
     2.3990      0.000050
     2.3995      0.000120
     2.4000      0.000230
     2.4005      0.000310
     2.4010      0.000260
     2.4015      0.000100
     2.4020      0.000150
     2.4025      0.000380
     2.4030      0.000480
     2.4035      0.000340
     2.4040      0.000080
     2.4045      0.000000
     2.4050      0.000000
     2.4055      0.000000
     2.4060      0.000020
     2.4065      0.000100
     2.4070      0.000250
     2.4075      0.000200
     2.4080      0.000060
     2.4085      0.000140
     2.4090      0.000230
     2.4095      0.000260
     2.4100      0.000320
     2.4105      0.000330
     2.4110      0.000180
     2.4115      0.000070
     2.4120      0.000250
     2.4125      0.000320
     2.4130      0.000300
     2.4135      0.000300
     2.4140      0.000200
     2.4145      0.000140
     2.4150      0.000200
     2.4155      0.000190
     2.4160      0.000010
     2.4165      0.000000
     2.4170      0.000000
     2.4175      0.000090
     2.4180      0.000300
     2.4185      0.000320
     2.4190      0.000170
     2.4195      0.000040
     2.4200      0.000020
     2.4205      0.000010
     2.4210      0.000000
     2.4215      0.000000
     2.4220      0.000070
     2.4225      0.000250
     2.4230      0.000460
     2.4235      0.000510
     2.4240      0.000350
     2.4245      0.000150
     2.4250      0.000260
     2.4255      0.000360
     2.4260      0.000210
     2.4265      0.000090
     2.4270      0.000020
     2.4275      0.000000
     2.4280      0.000080
     2.4285      0.000220
     2.4290      0.000220
     2.4295      0.000000
     2.4300      0.000000
     2.4305      0.000230
     2.4310      0.000460
     2.4315      0.000450
     2.4320      0.000360
     2.4325      0.000420
     2.4330      0.000470
     2.4335      0.000200
     2.4340      0.000020
     2.4345      0.000000
     2.4350      0.000020
     2.4355      0.000080
     2.4360      0.000080
     2.4365      0.000000
     2.4370      0.000060
     2.4375      0.000420
     2.4380      0.000700
     2.4385      0.000830
     2.4390      0.000660
     2.4395      0.000290
     2.4400      0.000020
     2.4405      0.000000
     2.4410      0.000000
     2.4415      0.000000
     2.4420      0.000000
     2.4425      0.000000
     2.4430      0.000000
     2.4435      0.000000
     2.4440      0.000000
     2.4445      0.000040
     2.4450      0.000170
     2.4455      0.000010
     2.4460      0.000000
     2.4465      0.000000
     2.4470      0.000000
     2.4475      0.000020
     2.4480      0.000110
     2.4485      0.000270
     2.4490      0.000140
     2.4495      0.000020
     2.4500      0.000040
     2.4505      0.000150
     2.4510      0.000190
     2.4515      0.000110
     2.4520      0.000000
     2.4525      0.000000
     2.4530      0.000080
     2.4535      0.000280
     2.4540      0.000130
     2.4545      0.000000
     2.4550      0.000000
     2.4555      0.000020
     2.4560      0.000110
     2.4565      0.000140
     2.4570      0.000280
     2.4575      0.000400
     2.4580      0.000320
     2.4585      0.000150
     2.4590      0.000090
     2.4595      0.000240
     2.4600      0.000440
     2.4605      0.000500
     2.4610      0.000340
     2.4615      0.000120
     2.4620      0.000020
     2.4625      0.000070
     2.4630      0.000180
     2.4635      0.000240
     2.4640      0.000250
     2.4645      0.000170
     2.4650      0.000110
     2.4655      0.000080
     2.4660      0.000050
     2.4665      0.000050
     2.4670      0.000210
     2.4675      0.000260
     2.4680      0.000170
     2.4685      0.000080
     2.4690      0.000120
     2.4695      0.000280
     2.4700      0.000350
     2.4705      0.000300
     2.4710      0.000450
     2.4715      0.000500
     2.4720      0.000350
     2.4725      0.000140
     2.4730      0.000140
     2.4735      0.000100
     2.4740      0.000020
     2.4745      0.000000
     2.4750      0.000070
     2.4755      0.000180
     2.4760      0.000270
     2.4765      0.000390
     2.4770      0.000480
     2.4775      0.000200
     2.4780      0.000040
     2.4785      0.000000
     2.4790      0.000030
     2.4795      0.000120
     2.4800      0.000010
     2.4805      0.000000
     2.4810      0.000030
     2.4815      0.000040
     2.4820      0.000050
     2.4825      0.000110
     2.4830      0.000290
     2.4835      0.000590
     2.4840      0.000780
     2.4845      0.000850
     2.4850      0.000870
     2.4855      0.000870
     2.4860      0.000740
     2.4865      0.000400
     2.4870      0.000150
     2.4875      0.000030
     2.4880      0.000000
     2.4885      0.000030
     2.4890      0.000170
     2.4895      0.000240
     2.4900      0.000110
     2.4905      0.000100
     2.4910      0.000200
     2.4915      0.000290
     2.4920      0.000290
     2.4925      0.000430
     2.4930      0.000520
     2.4935      0.000310
     2.4940      0.000070
     2.4945      0.000020
     2.4950      0.000130
     2.4955      0.000370
     2.4960      0.000310
     2.4965      0.000280
     2.4970      0.000350
     2.4975      0.000450
     2.4980      0.000460
     2.4985      0.000410
     2.4990      0.000300
     2.4995      0.000190
     2.5000      0.000190
     2.5005      0.000300
     2.5010      0.000350
     2.5015      0.000100
     2.5020      0.000020
     2.5025      0.000000
     2.5030      0.000000
     2.5035      0.000000
     2.5040      0.000000
     2.5045      0.000000
     2.5050      0.000000
     2.5055      0.000040
     2.5060      0.000050
     2.5065      0.000000
     2.5070      0.000000
     2.5075      0.000220
     2.5080      0.000260
     2.5085      0.000170
     2.5090      0.000130
     2.5095      0.000330
     2.5100      0.000580
     2.5105      0.000660
     2.5110      0.000600
     2.5115      0.000500
     2.5120      0.000390
     2.5125      0.000150
     2.5130      0.000030
     2.5135      0.000010
     2.5140      0.000050
     2.5145      0.000080
     2.5150      0.000040
     2.5155      0.000000
     2.5160      0.000000
     2.5165      0.000000
     2.5170      0.000000
     2.5175      0.000030
     2.5180      0.000160
     2.5185      0.000120
     2.5190      0.000130
     2.5195      0.000170
     2.5200      0.000220
     2.5205      0.000290
     2.5210      0.000350
     2.5215      0.000190
     2.5220      0.000060
     2.5225      0.000000
     2.5230      0.000010
     2.5235      0.000030
     2.5240      0.000040
     2.5245      0.000100
     2.5250      0.000160
     2.5255      0.000190
     2.5260      0.000170
     2.5265      0.000110
     2.5270      0.000030
     2.5275      0.000000
     2.5280      0.000010
     2.5285      0.000020
     2.5290      0.000000
     2.5295      0.000000
     2.5300      0.000040
     2.5305      0.000040
     2.5310      0.000000
     2.5315      0.000000
     2.5320      0.000200
     2.5325      0.000400
     2.5330      0.000480
     2.5335      0.000450
     2.5340      0.000470
     2.5345      0.000720
     2.5350      0.000820
     2.5355      0.000650
     2.5360      0.000400
     2.5365      0.000430
     2.5370      0.000840
     2.5375      0.000880
     2.5380      0.000560
     2.5385      0.000160
     2.5390      0.000010
     2.5395      0.000080
     2.5400      0.000300
     2.5405      0.000320
     2.5410      0.000210
     2.5415      0.000150
     2.5420      0.000180
     2.5425      0.000070
     2.5430      0.000030
     2.5435      0.000100
     2.5440      0.000290
     2.5445      0.000390
     2.5450      0.000330
     2.5455      0.000230
     2.5460      0.000180
     2.5465      0.000190
     2.5470      0.000170
     2.5475      0.000050
     2.5480      0.000000
     2.5485      0.000160
     2.5490      0.000570
     2.5495      0.000780
     2.5500      0.000890
     2.5505      0.000990
     2.5510      0.000980
     2.5515      0.000780
     2.5520      0.000570
     2.5525      0.000500
     2.5530      0.000500
     2.5535      0.000470
     2.5540      0.000370
     2.5545      0.000310
     2.5550      0.000540
     2.5555      0.000710
     2.5560      0.000700
     2.5565      0.000500
     2.5570      0.000410
     2.5575      0.000270
     2.5580      0.000240
     2.5585      0.000390
     2.5590      0.000730
     2.5595      0.000700
     2.5600      0.000370
     2.5605      0.000080
     2.5610      0.000020
     2.5615      0.000100
     2.5620      0.000030
     2.5625      0.000000
     2.5630      0.000040
     2.5635      0.000120
     2.5640      0.000160
     2.5645      0.000050
     2.5650      0.000000
     2.5655      0.000000
     2.5660      0.000000
     2.5665      0.000000
     2.5670      0.000000
     2.5675      0.000000
     2.5680      0.000000
     2.5685      0.000000
     2.5690      0.000030
     2.5695      0.000140
     2.5700      0.000290
     2.5705      0.000480
     2.5710      0.000740
     2.5715      0.000680
     2.5720      0.000360
     2.5725      0.000030
     2.5730      0.000030
     2.5735      0.000560
     2.5740      0.000590
     2.5745      0.000390
     2.5750      0.000180
     2.5755      0.000270
     2.5760      0.000240
     2.5765      0.000200
     2.5770      0.000230
     2.5775      0.000370
     2.5780      0.000520
     2.5785      0.000570
     2.5790      0.000560
     2.5795      0.000510
     2.5800      0.000470
     2.5805      0.000500
     2.5810      0.000690
     2.5815      0.000870
     2.5820      0.000900
     2.5825      0.000960
     2.5830      0.001290
     2.5835      0.001360
     2.5840      0.001130
     2.5845      0.000790
     2.5850      0.000540
     2.5855      0.000350
     2.5860      0.000350
     2.5865      0.000610
     2.5870      0.000610
     2.5875      0.000250
     2.5880      0.000080
     2.5885      0.000220
     2.5890      0.000570
     2.5895      0.000380
     2.5900      0.000150
     2.5905      0.000030
     2.5910      0.000140
     2.5915      0.000400
     2.5920      0.000670
     2.5925      0.000850
     2.5930      0.000900
     2.5935      0.000820
     2.5940      0.000930
     2.5945      0.000920
     2.5950      0.000810
     2.5955      0.000770
     2.5960      0.000830
     2.5965      0.000760
     2.5970      0.000690
     2.5975      0.000700
     2.5980      0.000560
     2.5985      0.000290
     2.5990      0.000080
     2.5995      0.000010
     2.6000      0.000090
     2.6005      0.000490
     2.6010      0.000880
     2.6015      0.001090
     2.6020      0.000930
     2.6025      0.000770
     2.6030      0.000800
     2.6035      0.001040
     2.6040      0.001470
     2.6045      0.001730
     2.6050      0.001580
     2.6055      0.001200
     2.6060      0.000780
     2.6065      0.000800
     2.6070      0.001140
     2.6075      0.001290
     2.6080      0.001120
     2.6085      0.000800
     2.6090      0.000780
     2.6095      0.000690
     2.6100      0.000510
     2.6105      0.000280
     2.6110      0.000180
     2.6115      0.000120
     2.6120      0.000190
     2.6125      0.000540
     2.6130      0.000910
     2.6135      0.001020
     2.6140      0.000990
     2.6145      0.001000
     2.6150      0.001130
     2.6155      0.001250
     2.6160      0.001360
     2.6165      0.001420
     2.6170      0.001440
     2.6175      0.001490
     2.6180      0.001550
     2.6185      0.001620
     2.6190      0.001800
     2.6195      0.001950
     2.6200      0.001810
     2.6205      0.001320
     2.6210      0.000940
     2.6215      0.001010
     2.6220      0.001180
     2.6225      0.001280
     2.6230      0.001020
     2.6235      0.000940
     2.6240      0.001140
     2.6245      0.001540
     2.6250      0.001660
     2.6255      0.001560
     2.6260      0.001420
     2.6265      0.001270
     2.6270      0.000980
     2.6275      0.001120
     2.6280      0.001490
     2.6285      0.001890
     2.6290      0.001780
     2.6295      0.001570
     2.6300      0.001450
     2.6305      0.001410
     2.6310      0.001290
     2.6315      0.001280
     2.6320      0.001330
     2.6325      0.001430
     2.6330      0.001610
     2.6335      0.001870
     2.6340      0.001950
     2.6345      0.001810
     2.6350      0.001560
     2.6355      0.001400
     2.6360      0.001270
     2.6365      0.001220
     2.6370      0.001510
     2.6375      0.001830
     2.6380      0.001890
     2.6385      0.001660
     2.6390      0.001680
     2.6395      0.001990
     2.6400      0.002170
     2.6405      0.002080
     2.6410      0.002100
     2.6415      0.002420
     2.6420      0.002640
     2.6425      0.002550
     2.6430      0.002290
     2.6435      0.002400
     2.6440      0.002640
     2.6445      0.002830
     2.6450      0.002620
     2.6455      0.002510
     2.6460      0.002480
     2.6465      0.002550
     2.6470      0.002730
     2.6475      0.002950
     2.6480      0.003130
     2.6485      0.003060
     2.6490      0.003020
     2.6495      0.003200
     2.6500      0.003490
     2.6505      0.003540
     2.6510      0.003420
     2.6515      0.003340
     2.6520      0.003360
     2.6525      0.003390
     2.6530      0.003390
     2.6535      0.003400
     2.6540      0.003480
     2.6545      0.004010
     2.6550      0.004530
     2.6555      0.004830
     2.6560      0.004700
     2.6565      0.004730
     2.6570      0.004860
     2.6575      0.005030
     2.6580      0.005140
     2.6585      0.005260
     2.6590      0.005290
     2.6595      0.005260
     2.6600      0.005350
     2.6605      0.005590
     2.6610      0.005840
     2.6615      0.006050
     2.6620      0.006230
     2.6625      0.006540
     2.6630      0.006960
     2.6635      0.007510
     2.6640      0.008020
     2.6645      0.008230
     2.6650      0.008160
     2.6655      0.007840
     2.6660      0.007790
     2.6665      0.007860
     2.6670      0.008020
     2.6675      0.008250
     2.6680      0.008820
     2.6685      0.009510
     2.6690      0.010180
     2.6695      0.010600
     2.6700      0.010780
     2.6705      0.010770
     2.6710      0.010600
     2.6715      0.010800
     2.6720      0.011120
     2.6725      0.011510
     2.6730      0.011820
     2.6735      0.012240
     2.6740      0.012810
     2.6745      0.013560
     2.6750      0.014450
     2.6755      0.015300
     2.6760      0.016110
     2.6765      0.016830
     2.6770      0.017180
     2.6775      0.017340
     2.6780      0.017380
     2.6785      0.017840
     2.6790      0.018610
     2.6795      0.019450
     2.6800      0.020140
     2.6805      0.020780
     2.6810      0.021410
     2.6815      0.022030
     2.6820      0.022710
     2.6825      0.023410
     2.6830      0.024050
     2.6835      0.024540
     2.6840      0.025210
     2.6845      0.025830
     2.6850      0.026420
     2.6855      0.027040
     2.6860      0.028300
     2.6865      0.029700
     2.6870      0.031080
     2.6875      0.031950
     2.6880      0.032720
     2.6885      0.033440
     2.6890      0.034160
     2.6895      0.035110
     2.6900      0.036200
     2.6905      0.037420
     2.6910      0.038520
     2.6915      0.039520
     2.6920      0.040520
     2.6925      0.041610
     2.6930      0.043050
     2.6935      0.044510
     2.6940      0.045940
     2.6945      0.047200
     2.6950      0.048740
     2.6955      0.050370
     2.6960      0.051850
     2.6965      0.053190
     2.6970      0.054540
     2.6975      0.055900
     2.6980      0.057180
     2.6985      0.058900
     2.6990      0.060820
     2.6995      0.062640
     2.7000      0.064200
     2.7005      0.065780
     2.7010      0.067440
     2.7015      0.068560
     2.7020      0.069780
     2.7025      0.071220
     2.7030      0.073220
     2.7035      0.075160
     2.7040      0.076950
     2.7045      0.078530
     2.7050      0.080390
     2.7055      0.082290
     2.7060      0.084190
     2.7065      0.085880
     2.7070      0.087750
     2.7075      0.089760
     2.7080      0.091910
     2.7085      0.094280
     2.7090      0.096540
     2.7095      0.098680
     2.7100      0.100980
     2.7105      0.103410
     2.7110      0.105510
     2.7115      0.106520
     2.7120      0.107570
     2.7125      0.108940
     2.7130      0.110710
     2.7135      0.112560
     2.7140      0.114440
     2.7145      0.116330
     2.7150      0.118180
     2.7155      0.119860
     2.7160      0.121590
     2.7165      0.123550
     2.7170      0.125570
     2.7175      0.127390
     2.7180      0.128970
     2.7185      0.130700
     2.7190      0.132780
     2.7195      0.135160
     2.7200      0.137940
     2.7205      0.139600
     2.7210      0.140530
     2.7215      0.140730
     2.7220      0.141940
     2.7225      0.143710
     2.7230      0.145980
     2.7235      0.148160
     2.7240      0.150050
     2.7245      0.151770
     2.7250      0.153440
     2.7255      0.154650
     2.7260      0.155510
     2.7265      0.155930
     2.7270      0.156970
     2.7275      0.158430
     2.7280      0.160270
     2.7285      0.161850
     2.7290      0.163450
     2.7295      0.165090
     2.7300      0.166800
     2.7305      0.168220
     2.7310      0.169540
     2.7315      0.170910
     2.7320      0.172760
     2.7325      0.174720
     2.7330      0.176690
     2.7335      0.178770
     2.7340      0.181030
     2.7345      0.183340
     2.7350      0.184510
     2.7355      0.185460
     2.7360      0.186450
     2.7365      0.188090
     2.7370      0.189940
     2.7375      0.192080
     2.7380      0.194720
     2.7385      0.197750
     2.7390      0.200500
     2.7395      0.202750
     2.7400      0.204380
     2.7405      0.205990
     2.7410      0.207560
     2.7415      0.208770
     2.7420      0.209600
     2.7425      0.210290
     2.7430      0.211490
     2.7435      0.213170
     2.7440      0.215060
     2.7445      0.216940
     2.7450      0.218880
     2.7455      0.220830
     2.7460      0.222810
     2.7465      0.224760
     2.7470      0.226790
     2.7475      0.228930
     2.7480      0.231250
     2.7485      0.233340
     2.7490      0.235240
     2.7495      0.237060
     2.7500      0.239290
     2.7505      0.241820
     2.7510      0.244590
     2.7515      0.246990
     2.7520      0.249160
     2.7525      0.251140
     2.7530      0.253780
     2.7535      0.256940
     2.7540      0.260810
     2.7545      0.265070
     2.7550      0.268320
     2.7555      0.269910
     2.7560      0.270150
     2.7565      0.271140
     2.7570      0.273130
     2.7575      0.275450
     2.7580      0.277610
     2.7585      0.279670
     2.7590      0.282330
     2.7595      0.285010
     2.7600      0.287680
     2.7605      0.290260
     2.7610      0.293410
     2.7615      0.296940
     2.7620      0.300870
     2.7625      0.303450
     2.7630      0.305360
     2.7635      0.306840
     2.7640      0.309070
     2.7645      0.311600
     2.7650      0.314280
     2.7655      0.317160
     2.7660      0.319900
     2.7665      0.322330
     2.7670      0.324870
     2.7675      0.327460
     2.7680      0.330080
     2.7685      0.331870
     2.7690      0.334070
     2.7695      0.336880
     2.7700      0.340360
     2.7705      0.343240
     2.7710      0.345470
     2.7715      0.347660
     2.7720      0.349830
     2.7725      0.351980
     2.7730      0.353930
     2.7735      0.355990
     2.7740      0.358140
     2.7745      0.360360
     2.7750      0.362830
     2.7755      0.365500
     2.7760      0.368280
     2.7765      0.370420
     2.7770      0.372060
     2.7775      0.373080
     2.7780      0.374490
     2.7785      0.376200
     2.7790      0.378340
     2.7795      0.380570
     2.7800      0.382800
     2.7805      0.384800
     2.7810      0.386430
     2.7815      0.387970
     2.7820      0.389880
     2.7825      0.391560
     2.7830      0.392920
     2.7835      0.393430
     2.7840      0.394270
     2.7845      0.395580
     2.7850      0.398140
     2.7855      0.400880
     2.7860      0.403240
     2.7865      0.404080
     2.7870      0.404960
     2.7875      0.405820
     2.7880      0.406550
     2.7885      0.406250
     2.7890      0.405790
     2.7895      0.406080
     2.7900      0.406870
     2.7905      0.407720
     2.7910      0.408130
     2.7915      0.408710
     2.7920      0.409390
     2.7925      0.410260
     2.7930      0.410750
     2.7935      0.410990
     2.7940      0.410860
     2.7945      0.410850
     2.7950      0.410880
     2.7955      0.410940
     2.7960      0.411140
     2.7965      0.411450
     2.7970      0.411950
     2.7975      0.411960
     2.7980      0.411670
     2.7985      0.411050
     2.7990      0.410940
     2.7995      0.411100
     2.8000      0.411310
     2.8005      0.411460
     2.8010      0.411690
     2.8015      0.412670
     2.8020      0.413340
     2.8025      0.413700
     2.8030      0.412970
     2.8035      0.411930
     2.8040      0.410640
     2.8045      0.409150
     2.8050      0.408100
     2.8055      0.407430
     2.8060      0.406990
     2.8065      0.406430
     2.8070      0.405740
     2.8075      0.405360
     2.8080      0.404840
     2.8085      0.404160
     2.8090      0.402920
     2.8095      0.401860
     2.8100      0.401070
     2.8105      0.400630
     2.8110      0.400020
     2.8115      0.399050
     2.8120      0.398300
     2.8125      0.397820
     2.8130      0.397810
     2.8135      0.397610
     2.8140      0.397220
     2.8145      0.396390
     2.8150      0.395310
     2.8155      0.394190
     2.8160      0.393240
     2.8165      0.392520
     2.8170      0.391940
     2.8175      0.391600
     2.8180      0.391100
     2.8185      0.390450
     2.8190      0.389220
     2.8195      0.388080
     2.8200      0.387030
     2.8205      0.386260
     2.8210      0.385660
     2.8215      0.385210
     2.8220      0.384840
     2.8225      0.384190
     2.8230      0.383180
     2.8235      0.382280
     2.8240      0.381460
     2.8245      0.380790
     2.8250      0.379940
     2.8255      0.379180
     2.8260      0.378750
     2.8265      0.378310
     2.8270      0.377760
     2.8275      0.376730
     2.8280      0.375900
     2.8285      0.375220
     2.8290      0.374910
     2.8295      0.374480
     2.8300      0.373960
     2.8305      0.373410
     2.8310      0.372850
     2.8315      0.372270
     2.8320      0.371440
     2.8325      0.370780
     2.8330      0.370420
     2.8335      0.370480
     2.8340      0.370500
     2.8345      0.370230
     2.8350      0.369770
     2.8355      0.369240
     2.8360      0.368740
     2.8365      0.368330
     2.8370      0.367980
     2.8375      0.367730
     2.8380      0.367190
     2.8385      0.366390
     2.8390      0.365530
     2.8395      0.365040
     2.8400      0.365050
     2.8405      0.365310
     2.8410      0.365490
     2.8415      0.365430
     2.8420      0.365080
     2.8425      0.364630
     2.8430      0.364150
     2.8435      0.363920
     2.8440      0.363820
     2.8445      0.363660
     2.8450      0.363290
     2.8455      0.362730
     2.8460      0.362590
     2.8465      0.362720
     2.8470      0.363250
     2.8475      0.363610
     2.8480      0.363800
     2.8485      0.363660
     2.8490      0.363490
     2.8495      0.363330
     2.8500      0.363350
     2.8505      0.363540
     2.8510      0.363880
     2.8515      0.364370
     2.8520      0.364740
     2.8525      0.364950
     2.8530      0.364930
     2.8535      0.364950
     2.8540      0.365130
     2.8545      0.365350
     2.8550      0.365550
     2.8555      0.365570
     2.8560      0.365840
     2.8565      0.366290
     2.8570      0.366930
     2.8575      0.367390
     2.8580      0.367600
     2.8585      0.367770
     2.8590      0.367990
     2.8595      0.368350
     2.8600      0.368970
     2.8605      0.369720
     2.8610      0.370590
     2.8615      0.371350
     2.8620      0.372000
     2.8625      0.372560
     2.8630      0.373070
     2.8635      0.373500
     2.8640      0.374110
     2.8645      0.374810
     2.8650      0.375660
     2.8655      0.376390
     2.8660      0.377060
     2.8665      0.377950
     2.8670      0.378940
     2.8675      0.380040
     2.8680      0.381170
     2.8685      0.382250
     2.8690      0.383210
     2.8695      0.383960
     2.8700      0.384660
     2.8705      0.385630
     2.8710      0.386750
     2.8715      0.387990
     2.8720      0.389250
     2.8725      0.390580
     2.8730      0.392000
     2.8735      0.393250
     2.8740      0.394400
     2.8745      0.395330
     2.8750      0.396320
     2.8755      0.397350
     2.8760      0.398690
     2.8765      0.400010
     2.8770      0.401290
     2.8775      0.402410
     2.8780      0.403560
     2.8785      0.405070
     2.8790      0.406660
     2.8795      0.408320
     2.8800      0.409710
     2.8805      0.411100
     2.8810      0.412470
     2.8815      0.414160
     2.8820      0.415990
     2.8825      0.418130
     2.8830      0.419880
     2.8835      0.421360
     2.8840      0.422700
     2.8845      0.424330
     2.8850      0.426440
     2.8855      0.428280
     2.8860      0.430030
     2.8865      0.431650
     2.8870      0.433530
     2.8875      0.435600
     2.8880      0.437510
     2.8885      0.439450
     2.8890      0.441430
     2.8895      0.443480
     2.8900      0.445510
     2.8905      0.447320
     2.8910      0.449310
     2.8915      0.451450
     2.8920      0.453860
     2.8925      0.456130
     2.8930      0.457980
     2.8935      0.459740
     2.8940      0.461510
     2.8945      0.463920
     2.8950      0.466330
     2.8955      0.468740
     2.8960      0.470940
     2.8965      0.473080
     2.8970      0.475150
     2.8975      0.477280
     2.8980      0.479450
     2.8985      0.482360
     2.8990      0.485350
     2.8995      0.488430
     2.9000      0.491030
     2.9005      0.493430
     2.9010      0.495690
     2.9015      0.498200
     2.9020      0.500990
     2.9025      0.503830
     2.9030      0.506520
     2.9035      0.508700
     2.9040      0.510970
     2.9045      0.513280
     2.9050      0.516030
     2.9055      0.518740
     2.9060      0.521400
     2.9065      0.524210
     2.9070      0.527060
     2.9075      0.529770
     2.9080      0.532290
     2.9085      0.534590
     2.9090      0.536890
     2.9095      0.539210
     2.9100      0.541580
     2.9105      0.544180
     2.9110      0.546930
     2.9115      0.550140
     2.9120      0.553320
     2.9125      0.556390
     2.9130      0.559150
     2.9135      0.561770
     2.9140      0.564340
     2.9145      0.566880
     2.9150      0.569380
     2.9155      0.571840
     2.9160      0.574300
     2.9165      0.576840
     2.9170      0.579400
     2.9175      0.581990
     2.9180      0.585020
     2.9185      0.588120
     2.9190      0.591170
     2.9195      0.593670
     2.9200      0.595720
     2.9205      0.597780
     2.9210      0.599960
     2.9215      0.602470
     2.9220      0.605130
     2.9225      0.607890
     2.9230      0.610900
     2.9235      0.613760
     2.9240      0.616320
     2.9245      0.618610
     2.9250      0.620770
     2.9255      0.622940
     2.9260      0.625060
     2.9265      0.627090
     2.9270      0.629010
     2.9275      0.630860
     2.9280      0.632570
     2.9285      0.634320
     2.9290      0.636130
     2.9295      0.638120
     2.9300      0.640170
     2.9305      0.642290
     2.9310      0.644420
     2.9315      0.646550
     2.9320      0.648520
     2.9325      0.650400
     2.9330      0.652040
     2.9335      0.653710
     2.9340      0.655420
     2.9345      0.657050
     2.9350      0.658570
     2.9355      0.659650
     2.9360      0.660750
     2.9365      0.661860
     2.9370      0.663200
     2.9375      0.664550
     2.9380      0.665780
     2.9385      0.666840
     2.9390      0.667720
     2.9395      0.668410
     2.9400      0.669070
     2.9405      0.669750
     2.9410      0.670290
     2.9415      0.670710
     2.9420      0.671170
     2.9425      0.671630
     2.9430      0.672050
     2.9435      0.672220
     2.9440      0.672150
     2.9445      0.672370
     2.9450      0.672630
     2.9455      0.672750
     2.9460      0.672710
     2.9465      0.672490
     2.9470      0.672600
     2.9475      0.672730
     2.9480      0.672410
     2.9485      0.672000
     2.9490      0.671500
     2.9495      0.671150
     2.9500      0.670800
     2.9505      0.670150
     2.9510      0.669600
     2.9515      0.669190
     2.9520      0.668610
     2.9525      0.667940
     2.9530      0.666730
     2.9535      0.665620
     2.9540      0.664670
     2.9545      0.663610
     2.9550      0.662510
     2.9555      0.661120
     2.9560      0.659820
     2.9565      0.658680
     2.9570      0.657390
     2.9575      0.656010
     2.9580      0.654210
     2.9585      0.652490
     2.9590      0.651030
     2.9595      0.649710
     2.9600      0.648490
     2.9605      0.647040
     2.9610      0.645530
     2.9615      0.643850
     2.9620      0.642180
     2.9625      0.640530
     2.9630      0.639050
     2.9635      0.637560
     2.9640      0.635670
     2.9645      0.633610
     2.9650      0.631360
     2.9655      0.629360
     2.9660      0.627460
     2.9665      0.625450
     2.9670      0.623340
     2.9675      0.621050
     2.9680      0.618860
     2.9685      0.616740
     2.9690      0.614940
     2.9695      0.613130
     2.9700      0.611200
     2.9705      0.609050
     2.9710      0.606680
     2.9715      0.604320
     2.9720      0.601940
     2.9725      0.599450
     2.9730      0.597040
     2.9735      0.594730
     2.9740      0.592780
     2.9745      0.590970
     2.9750      0.589070
     2.9755      0.587110
     2.9760      0.585010
     2.9765      0.582790
     2.9770      0.580480
     2.9775      0.577930
     2.9780      0.575350
     2.9785      0.572820
     2.9790      0.570480
     2.9795      0.568350
     2.9800      0.566270
     2.9805      0.564210
     2.9810      0.561990
     2.9815      0.559830
     2.9820      0.557810
     2.9825      0.555850
     2.9830      0.553940
     2.9835      0.552010
     2.9840      0.550060
     2.9845      0.548040
     2.9850      0.545930
     2.9855      0.543740
     2.9860      0.541790
     2.9865      0.539950
     2.9870      0.538580
     2.9875      0.537090
     2.9880      0.535320
     2.9885      0.533180
     2.9890      0.530780
     2.9895      0.528570
     2.9900      0.526430
     2.9905      0.524510
     2.9910      0.522670
     2.9915      0.520940
     2.9920      0.519330
     2.9925      0.517780
     2.9930      0.515770
     2.9935      0.513770
     2.9940      0.511830
     2.9945      0.510230
     2.9950      0.508950
     2.9955      0.507520
     2.9960      0.506030
     2.9965      0.504270
     2.9970      0.502630
     2.9975      0.501240
     2.9980      0.500000
     2.9985      0.498860
     2.9990      0.497520
     2.9995      0.496090
     3.0000      0.494330
     3.0005      0.492570
     3.0010      0.490810
     3.0015      0.489340
     3.0020      0.488030
     3.0025      0.487180
     3.0030      0.486390
     3.0035      0.485620
     3.0040      0.484570
     3.0045      0.483110
     3.0050      0.481490
     3.0055      0.479790
     3.0060      0.479060
     3.0065      0.478450
     3.0070      0.478090
     3.0075      0.477450
     3.0080      0.476490
     3.0085      0.475580
     3.0090      0.474700
     3.0095      0.473690
     3.0100      0.472640
     3.0105      0.471520
     3.0110      0.470590
     3.0115      0.469890
     3.0120      0.469220
     3.0125      0.468550
     3.0130      0.467900
     3.0135      0.467230
     3.0140      0.466470
     3.0145      0.465710
     3.0150      0.464940
     3.0155      0.464430
     3.0160      0.464020
     3.0165      0.463530
     3.0170      0.463040
     3.0175      0.462570
     3.0180      0.462260
     3.0185      0.462150
     3.0190      0.462050
     3.0195      0.461970
     3.0200      0.461780
     3.0205      0.461540
     3.0210      0.461140
     3.0215      0.460730
     3.0220      0.460300
     3.0225      0.460140
     3.0230      0.460130
     3.0235      0.460340
     3.0240      0.460560
     3.0245      0.460610
     3.0250      0.460590
     3.0255      0.460450
     3.0260      0.460130
     3.0265      0.459690
     3.0270      0.459110
     3.0275      0.458540
     3.0280      0.458600
     3.0285      0.458780
     3.0290      0.459250
     3.0295      0.459470
     3.0300      0.459470
     3.0305      0.459540
     3.0310      0.459620
     3.0315      0.460360
     3.0320      0.461040
     3.0325      0.461480
     3.0330      0.461740
     3.0335      0.461750
     3.0340      0.462100
     3.0345      0.462620
     3.0350      0.463270
     3.0355      0.463900
     3.0360      0.464310
     3.0365      0.464680
     3.0370      0.464960
     3.0375      0.465050
     3.0380      0.464960
     3.0385      0.465130
     3.0390      0.465380
     3.0395      0.466330
     3.0400      0.467250
     3.0405      0.468060
     3.0410      0.468830
     3.0415      0.469540
     3.0420      0.470220
     3.0425      0.470880
     3.0430      0.471310
     3.0435      0.471750
     3.0440      0.472720
     3.0445      0.473770
     3.0450      0.475010
     3.0455      0.476000
     3.0460      0.476720
     3.0465      0.477680
     3.0470      0.478760
     3.0475      0.479890
     3.0480      0.480970
     3.0485      0.481600
     3.0490      0.482340
     3.0495      0.483270
     3.0500      0.484230
     3.0505      0.485200
     3.0510      0.486060
     3.0515      0.486880
     3.0520      0.487840
     3.0525      0.488820
     3.0530      0.489840
     3.0535      0.490950
     3.0540      0.492200
     3.0545      0.493480
     3.0550      0.494770
     3.0555      0.496040
     3.0560      0.497300
     3.0565      0.498470
     3.0570      0.499590
     3.0575      0.500450
     3.0580      0.501360
     3.0585      0.502390
     3.0590      0.503590
     3.0595      0.504930
     3.0600      0.506470
     3.0605      0.508080
     3.0610      0.509680
     3.0615      0.511220
     3.0620      0.512360
     3.0625      0.513610
     3.0630      0.515080
     3.0635      0.516650
     3.0640      0.518310
     3.0645      0.519620
     3.0650      0.520780
     3.0655      0.522150
     3.0660      0.523550
     3.0665      0.524960
     3.0670      0.526340
     3.0675      0.527630
     3.0680      0.529150
     3.0685      0.530980
     3.0690      0.532780
     3.0695      0.534570
     3.0700      0.536370
     3.0705      0.538170
     3.0710      0.540070
     3.0715      0.541900
     3.0720      0.543470
     3.0725      0.545110
     3.0730      0.546890
     3.0735      0.548610
     3.0740      0.550290
     3.0745      0.551770
     3.0750      0.553180
     3.0755      0.555000
     3.0760      0.556870
     3.0765      0.558860
     3.0770      0.560780
     3.0775      0.562500
     3.0780      0.564190
     3.0785      0.565830
     3.0790      0.567400
     3.0795      0.568930
     3.0800      0.570520
     3.0805      0.572140
     3.0810      0.574190
     3.0815      0.576290
     3.0820      0.578610
     3.0825      0.580840
     3.0830      0.582840
     3.0835      0.584610
     3.0840      0.586060
     3.0845      0.587470
     3.0850      0.588870
     3.0855      0.590710
     3.0860      0.592700
     3.0865      0.594590
     3.0870      0.596450
     3.0875      0.598050
     3.0880      0.599780
     3.0885      0.601890
     3.0890      0.603950
     3.0895      0.605930
     3.0900      0.607790
     3.0905      0.609560
     3.0910      0.611670
     3.0915      0.613920
     3.0920      0.615880
     3.0925      0.617770
     3.0930      0.618980
     3.0935      0.620250
     3.0940      0.621770
     3.0945      0.623520
     3.0950      0.625730
     3.0955      0.627920
     3.0960      0.630120
     3.0965      0.632080
     3.0970      0.633930
     3.0975      0.635350
     3.0980      0.636670
     3.0985      0.637770
     3.0990      0.638940
     3.0995      0.640750
     3.1000      0.642570
     3.1005      0.644450
     3.1010      0.646110
     3.1015      0.647480
     3.1020      0.648810
     3.1025      0.650110
     3.1030      0.651370
     3.1035      0.652600
     3.1040      0.654000
     3.1045      0.655440
     3.1050      0.656820
     3.1055      0.658130
     3.1060      0.658900
     3.1065      0.659640
     3.1070      0.660270
     3.1075      0.660960
     3.1080      0.661720
     3.1085      0.662630
     3.1090      0.663650
     3.1095      0.664860
     3.1100      0.666170
     3.1105      0.667200
     3.1110      0.668160
     3.1115      0.668560
     3.1120      0.668910
     3.1125      0.669240
     3.1130      0.669640
     3.1135      0.670270
     3.1140      0.670810
     3.1145      0.671190
     3.1150      0.671350
     3.1155      0.671280
     3.1160      0.671060
     3.1165      0.670740
     3.1170      0.670290
     3.1175      0.669780
     3.1180      0.669530
     3.1185      0.669330
     3.1190      0.669550
     3.1195      0.669780
     3.1200      0.670000
     3.1205      0.670150
     3.1210      0.670060
     3.1215      0.669800
     3.1220      0.669190
     3.1225      0.668500
     3.1230      0.667730
     3.1235      0.667070
     3.1240      0.666510
     3.1245      0.665900
     3.1250      0.665280
     3.1255      0.664330
     3.1260      0.663290
     3.1265      0.661970
     3.1270      0.660650
     3.1275      0.659870
     3.1280      0.659080
     3.1285      0.658160
     3.1290      0.657010
     3.1295      0.655210
     3.1300      0.653590
     3.1305      0.652250
     3.1310      0.651020
     3.1315      0.649910
     3.1320      0.648430
     3.1325      0.646680
     3.1330      0.644800
     3.1335      0.642850
     3.1340      0.640910
     3.1345      0.638970
     3.1350      0.637320
     3.1355      0.635700
     3.1360      0.634360
     3.1365      0.632970
     3.1370      0.631230
     3.1375      0.629380
     3.1380      0.627130
     3.1385      0.624960
     3.1390      0.622980
     3.1395      0.621170
     3.1400      0.619600
     3.1405      0.617770
     3.1410      0.615680
     3.1415      0.613400
     3.1420      0.611000
     3.1425      0.608860
     3.1430      0.606820
     3.1435      0.604550
     3.1440      0.602210
     3.1445      0.599810
     3.1450      0.597400
     3.1455      0.595580
     3.1460      0.593720
     3.1465      0.591470
     3.1470      0.589180
     3.1475      0.586750
     3.1480      0.584510
     3.1485      0.582780
     3.1490      0.580850
     3.1495      0.578580
     3.1500      0.576030
     3.1505      0.573140
     3.1510      0.570430
     3.1515      0.567890
     3.1520      0.565440
     3.1525      0.563040
     3.1530      0.560670
     3.1535      0.558300
     3.1540      0.555940
     3.1545      0.553590
     3.1550      0.551260
     3.1555      0.548940
     3.1560      0.546610
     3.1565      0.544270
     3.1570      0.541750
     3.1575      0.539250
     3.1580      0.536910
     3.1585      0.534600
     3.1590      0.532420
     3.1595      0.530250
     3.1600      0.528100
     3.1605      0.525870
     3.1610      0.523490
     3.1615      0.520930
     3.1620      0.518110
     3.1625      0.515500
     3.1630      0.513130
     3.1635      0.510790
     3.1640      0.508450
     3.1645      0.505750
     3.1650      0.502790
     3.1655      0.500480
     3.1660      0.498480
     3.1665      0.497070
     3.1670      0.495870
     3.1675      0.494030
     3.1680      0.492030
     3.1685      0.489620
     3.1690      0.487150
     3.1695      0.484770
     3.1700      0.482400
     3.1705      0.480270
     3.1710      0.478170
     3.1715      0.476340
     3.1720      0.474490
     3.1725      0.472560
     3.1730      0.470620
     3.1735      0.468600
     3.1740      0.466610
     3.1745      0.464760
     3.1750      0.462940
     3.1755      0.461230
     3.1760      0.459480
     3.1765      0.457640
     3.1770      0.455690
     3.1775      0.453560
     3.1780      0.451430
     3.1785      0.449320
     3.1790      0.447180
     3.1795      0.445010
     3.1800      0.442940
     3.1805      0.440950
     3.1810      0.439330
     3.1815      0.437950
     3.1820      0.436540
     3.1825      0.435100
     3.1830      0.433610
     3.1835      0.432090
     3.1840      0.430620
     3.1845      0.429180
     3.1850      0.427490
     3.1855      0.425740
     3.1860      0.424060
     3.1865      0.422410
     3.1870      0.420870
     3.1875      0.419340
     3.1880      0.417810
     3.1885      0.416280
     3.1890      0.414960
     3.1895      0.413650
     3.1900      0.412310
     3.1905      0.410950
     3.1910      0.409380
     3.1915      0.407820
     3.1920      0.406290
     3.1925      0.404810
     3.1930      0.403680
     3.1935      0.402560
     3.1940      0.401540
     3.1945      0.400510
     3.1950      0.399450
     3.1955      0.398400
     3.1960      0.397430
     3.1965      0.396390
     3.1970      0.395120
     3.1975      0.393800
     3.1980      0.392350
     3.1985      0.391000
     3.1990      0.389900
     3.1995      0.388950
     3.2000      0.388290
     3.2005      0.387590
     3.2010      0.386840
     3.2015      0.385970
     3.2020      0.384880
     3.2025      0.383800
     3.2030      0.382710
     3.2035      0.381560
     3.2040      0.380320
     3.2045      0.379140
     3.2050      0.378030
     3.2055      0.377080
     3.2060      0.376330
     3.2065      0.375560
     3.2070      0.374780
     3.2075      0.374040
     3.2080      0.373350
     3.2085      0.372600
     3.2090      0.371780
     3.2095      0.371000
     3.2100      0.370250
     3.2105      0.369790
     3.2110      0.369580
     3.2115      0.369210
     3.2120      0.368690
     3.2125      0.367840
     3.2130      0.366720
     3.2135      0.365810
     3.2140      0.365090
     3.2145      0.364720
     3.2150      0.364610
     3.2155      0.364400
     3.2160      0.364110
     3.2165      0.363680
     3.2170      0.363130
     3.2175      0.362750
     3.2180      0.362480
     3.2185      0.362250
     3.2190      0.362030
     3.2195      0.361660
     3.2200      0.361190
     3.2205      0.360720
     3.2210      0.360250
     3.2215      0.359910
     3.2220      0.359680
     3.2225      0.359570
     3.2230      0.359570
     3.2235      0.359570
     3.2240      0.359550
     3.2245      0.359310
     3.2250      0.358890
     3.2255      0.358360
     3.2260      0.357760
     3.2265      0.357370
     3.2270      0.357150
     3.2275      0.357150
     3.2280      0.357340
     3.2285      0.357410
     3.2290      0.357380
     3.2295      0.357150
     3.2300      0.356740
     3.2305      0.356500
     3.2310      0.356430
     3.2315      0.356580
     3.2320      0.356930
     3.2325      0.357180
     3.2330      0.357310
     3.2335      0.357340
     3.2340      0.357250
     3.2345      0.357230
     3.2350      0.357300
     3.2355      0.357530
     3.2360      0.357980
     3.2365      0.358460
     3.2370      0.359000
     3.2375      0.359510
     3.2380      0.359980
     3.2385      0.360470
     3.2390      0.360980
     3.2395      0.361460
     3.2400      0.361860
     3.2405      0.362240
     3.2410      0.362590
     3.2415      0.362980
     3.2420      0.363450
     3.2425      0.363940
     3.2430      0.364480
     3.2435      0.365040
     3.2440      0.365650
     3.2445      0.366260
     3.2450      0.366860
     3.2455      0.367430
     3.2460      0.367850
     3.2465      0.368280
     3.2470      0.368790
     3.2475      0.369330
     3.2480      0.370220
     3.2485      0.371120
     3.2490      0.372020
     3.2495      0.372910
     3.2500      0.373730
     3.2505      0.374550
     3.2510      0.375410
     3.2515      0.376280
     3.2520      0.377160
     3.2525      0.378040
     3.2530      0.379220
     3.2535      0.380430
     3.2540      0.381720
     3.2545      0.383030
     3.2550      0.384120
     3.2555      0.385180
     3.2560      0.386050
     3.2565      0.386870
     3.2570      0.387550
     3.2575      0.388180
     3.2580      0.389150
     3.2585      0.390250
     3.2590      0.391770
     3.2595      0.393500
     3.2600      0.395060
     3.2605      0.396530
     3.2610      0.397770
     3.2615      0.398840
     3.2620      0.399930
     3.2625      0.401050
     3.2630      0.402210
     3.2635      0.403440
     3.2640      0.404840
     3.2645      0.406500
     3.2650      0.408220
     3.2655      0.410040
     3.2660      0.411730
     3.2665      0.413080
     3.2670      0.414460
     3.2675      0.415920
     3.2680      0.417420
     3.2685      0.419060
     3.2690      0.420670
     3.2695      0.422070
     3.2700      0.423480
     3.2705      0.425070
     3.2710      0.426650
     3.2715      0.428660
     3.2720      0.430660
     3.2725      0.432690
     3.2730      0.434710
     3.2735      0.436480
     3.2740      0.438210
     3.2745      0.439940
     3.2750      0.441670
     3.2755      0.443520
     3.2760      0.445400
     3.2765      0.447300
     3.2770      0.449230
     3.2775      0.451260
     3.2780      0.453380
     3.2785      0.455560
     3.2790      0.457800
     3.2795      0.460020
     3.2800      0.462210
     3.2805      0.464380
     3.2810      0.466500
     3.2815      0.468710
     3.2820      0.471140
     3.2825      0.473610
     3.2830      0.476230
     3.2835      0.478750
     3.2840      0.480720
     3.2845      0.482670
     3.2850      0.484380
     3.2855      0.486100
     3.2860      0.488020
     3.2865      0.489950
     3.2870      0.492080
     3.2875      0.494240
     3.2880      0.496870
     3.2885      0.499610
     3.2890      0.502400
     3.2895      0.505210
     3.2900      0.507850
     3.2905      0.510390
     3.2910      0.512970
     3.2915      0.515560
     3.2920      0.518040
     3.2925      0.520400
     3.2930      0.522730
     3.2935      0.525010
     3.2940      0.527390
     3.2945      0.530050
     3.2950      0.532730
     3.2955      0.535540
     3.2960      0.538340
     3.2965      0.540960
     3.2970      0.543570
     3.2975      0.545840
     3.2980      0.548100
     3.2985      0.550380
     3.2990      0.552660
     3.2995      0.555480
     3.3000      0.558420
     3.3005      0.561250
     3.3010      0.564030
     3.3015      0.566440
     3.3020      0.568590
     3.3025      0.570930
     3.3030      0.573470
     3.3035      0.576040
     3.3040      0.578660
     3.3045      0.581200
     3.3050      0.583550
     3.3055      0.585930
     3.3060      0.588440
     3.3065      0.590920
     3.3070      0.593180
     3.3075      0.595430
     3.3080      0.597910
     3.3085      0.600400
     3.3090      0.603190
     3.3095      0.606020
     3.3100      0.608380
     3.3105      0.610560
     3.3110      0.612660
     3.3115      0.614710
     3.3120      0.616880
     3.3125      0.619150
     3.3130      0.621280
     3.3135      0.623190
     3.3140      0.625060
     3.3145      0.626860
     3.3150      0.628660
     3.3155      0.630470
     3.3160      0.632270
     3.3165      0.634210
     3.3170      0.636140
     3.3175      0.638250
     3.3180      0.640370
     3.3185      0.642140
     3.3190      0.643820
     3.3195      0.645490
     3.3200      0.647150
     3.3205      0.648860
     3.3210      0.650630
     3.3215      0.652200
     3.3220      0.653490
     3.3225      0.654770
     3.3230      0.656030
     3.3235      0.657230
     3.3240      0.658100
     3.3245      0.658950
     3.3250      0.659470
     3.3255      0.659990
     3.3260      0.660980
     3.3265      0.662040
     3.3270      0.662890
     3.3275      0.663680
     3.3280      0.664440
     3.3285      0.665170
     3.3290      0.666070
     3.3295      0.667150
     3.3300      0.667990
     3.3305      0.668350
     3.3310      0.668660
     3.3315      0.668720
     3.3320      0.668810
     3.3325      0.669220
     3.3330      0.669620
     3.3335      0.669980
     3.3340      0.670340
     3.3345      0.670480
     3.3350      0.670560
     3.3355      0.670350
     3.3360      0.669970
     3.3365      0.669500
     3.3370      0.668930
     3.3375      0.668430
     3.3380      0.668050
     3.3385      0.667690
     3.3390      0.667430
     3.3395      0.667170
     3.3400      0.666710
     3.3405      0.666250
     3.3410      0.665610
     3.3415      0.664940
     3.3420      0.664200
     3.3425      0.663430
     3.3430      0.662380
     3.3435      0.661150
     3.3440      0.659910
     3.3445      0.658680
     3.3450      0.657570
     3.3455      0.656800
     3.3460      0.656020
     3.3465      0.655030
     3.3470      0.654040
     3.3475      0.652720
     3.3480      0.651390
     3.3485      0.650110
     3.3490      0.648840
     3.3495      0.647590
     3.3500      0.646360
     3.3505      0.644920
     3.3510      0.643230
     3.3515      0.641470
     3.3520      0.639520
     3.3525      0.637640
     3.3530      0.636160
     3.3535      0.634690
     3.3540      0.632860
     3.3545      0.631010
     3.3550      0.628830
     3.3555      0.626550
     3.3560      0.624510
     3.3565      0.622610
     3.3570      0.620590
     3.3575      0.618400
     3.3580      0.616220
     3.3585      0.614100
     3.3590      0.612010
     3.3595      0.610290
     3.3600      0.608560
     3.3605      0.606200
     3.3610      0.603770
     3.3615      0.601290
     3.3620      0.598780
     3.3625      0.596710
     3.3630      0.594980
     3.3635      0.593120
     3.3640      0.591060
     3.3645      0.588900
     3.3650      0.586360
     3.3655      0.583840
     3.3660      0.581880
     3.3665      0.579920
     3.3670      0.578080
     3.3675      0.576270
     3.3680      0.574100
     3.3685      0.571730
     3.3690      0.569330
     3.3695      0.566880
     3.3700      0.564480
     3.3705      0.562220
     3.3710      0.559970
     3.3715      0.557880
     3.3720      0.555780
     3.3725      0.553810
     3.3730      0.551860
     3.3735      0.549900
     3.3740      0.547950
     3.3745      0.545820
     3.3750      0.543520
     3.3755      0.541220
     3.3760      0.538910
     3.3765      0.536630
     3.3770      0.534660
     3.3775      0.532680
     3.3780      0.530350
     3.3785      0.527970
     3.3790      0.525500
     3.3795      0.522990
     3.3800      0.520690
     3.3805      0.518590
     3.3810      0.516510
     3.3815      0.514460
     3.3820      0.512410
     3.3825      0.510490
     3.3830      0.508570
     3.3835      0.506650
     3.3840      0.504720
     3.3845      0.502820
     3.3850      0.500940
     3.3855      0.499300
     3.3860      0.497940
     3.3865      0.496560
     3.3870      0.495080
     3.3875      0.493580
     3.3880      0.491390
     3.3885      0.489210
     3.3890      0.486980
     3.3895      0.484760
     3.3900      0.482810
     3.3905      0.481050
     3.3910      0.479310
     3.3915      0.477610
     3.3920      0.475890
     3.3925      0.474100
     3.3930      0.472300
     3.3935      0.470790
     3.3940      0.469300
     3.3945      0.467870
     3.3950      0.466450
     3.3955      0.464950
     3.3960      0.463380
     3.3965      0.461840
     3.3970      0.460380
     3.3975      0.458930
     3.3980      0.457380
     3.3985      0.455840
     3.3990      0.454200
     3.3995      0.452540
     3.4000      0.450960
     3.4005      0.449430
     3.4010      0.447920
     3.4015      0.446420
     3.4020      0.444940
     3.4025      0.443500
     3.4030      0.442060
     3.4035      0.440790
     3.4040      0.439540
     3.4045      0.438450
     3.4050      0.437440
     3.4055      0.436450
     3.4060      0.435500
     3.4065      0.434560
     3.4070      0.433670
     3.4075      0.432780
     3.4080      0.431660
     3.4085      0.430540
     3.4090      0.429050
     3.4095      0.427410
     3.4100      0.426020
     3.4105      0.424890
     3.4110      0.423870
     3.4115      0.423200
     3.4120      0.422530
     3.4125      0.421300
     3.4130      0.420060
     3.4135      0.418850
     3.4140      0.417640
     3.4145      0.416690
     3.4150      0.416010
     3.4155      0.415360
     3.4160      0.414770
     3.4165      0.414180
     3.4170      0.413460
     3.4175      0.412750
     3.4180      0.412000
     3.4185      0.411250
     3.4190      0.410630
     3.4195      0.410140
     3.4200      0.409650
     3.4205      0.409140
     3.4210      0.408640
     3.4215      0.407700
     3.4220      0.406760
     3.4225      0.406070
     3.4230      0.405490
     3.4235      0.405050
     3.4240      0.404800
     3.4245      0.404460
     3.4250      0.403840
     3.4255      0.403210
     3.4260      0.402660
     3.4265      0.402110
     3.4270      0.401680
     3.4275      0.401310
     3.4280      0.401110
     3.4285      0.401150
     3.4290      0.401200
     3.4295      0.401240
     3.4300      0.401290
     3.4305      0.400540
     3.4310      0.399670
     3.4315      0.399140
     3.4320      0.398820
     3.4325      0.398720
     3.4330      0.399050
     3.4335      0.399330
     3.4340      0.398790
     3.4345      0.398240
     3.4350      0.397770
     3.4355      0.397310
     3.4360      0.397220
     3.4365      0.397480
     3.4370      0.397690
     3.4375      0.397730
     3.4380      0.397770
     3.4385      0.397570
     3.4390      0.397350
     3.4395      0.397160
     3.4400      0.396990
     3.4405      0.396870
     3.4410      0.396850
     3.4415      0.396860
     3.4420      0.397100
     3.4425      0.397340
     3.4430      0.397560
     3.4435      0.397770
     3.4440      0.397920
     3.4445      0.398040
     3.4450      0.398130
     3.4455      0.398170
     3.4460      0.398210
     3.4465      0.398100
     3.4470      0.397970
     3.4475      0.398010
     3.4480      0.398130
     3.4485      0.398370
     3.4490      0.398810
     3.4495      0.399240
     3.4500      0.399600
     3.4505      0.399960
     3.4510      0.400090
     3.4515      0.400160
     3.4520      0.400260
     3.4525      0.400400
     3.4530      0.400620
     3.4535      0.401250
     3.4540      0.401880
     3.4545      0.402500
     3.4550      0.403110
     3.4555      0.403540
     3.4560      0.403840
     3.4565      0.404140
     3.4570      0.404420
     3.4575      0.404700
     3.4580      0.404900
     3.4585      0.405100
     3.4590      0.405250
     3.4595      0.405370
     3.4600      0.405580
     3.4605      0.405920
     3.4610      0.406270
     3.4615      0.406750
     3.4620      0.407230
     3.4625      0.407790
     3.4630      0.408380
     3.4635      0.408950
     3.4640      0.409500
     3.4645      0.410000
     3.4650      0.410210
     3.4655      0.410410
     3.4660      0.410910
     3.4665      0.411480
     3.4670      0.412250
     3.4675      0.413230
     3.4680      0.414190
     3.4685      0.415000
     3.4690      0.415810
     3.4695      0.416330
     3.4700      0.416790
     3.4705      0.416950
     3.4710      0.416840
     3.4715      0.416780
     3.4720      0.416890
     3.4725      0.417010
     3.4730      0.417590
     3.4735      0.418250
     3.4740      0.419010
     3.4745      0.419840
     3.4750      0.420650
     3.4755      0.421360
     3.4760      0.422070
     3.4765      0.422100
     3.4770      0.422050
     3.4775      0.422160
     3.4780      0.422400
     3.4785      0.422860
     3.4790      0.424070
     3.4795      0.425280
     3.4800      0.426320
     3.4805      0.427340
     3.4810      0.428170
     3.4815      0.428850
     3.4820      0.429520
     3.4825      0.430160
     3.4830      0.430810
     3.4835      0.431260
     3.4840      0.431690
     3.4845      0.432010
     3.4850      0.432240
     3.4855      0.432500
     3.4860      0.432920
     3.4865      0.433340
     3.4870      0.434180
     3.4875      0.435110
     3.4880      0.435900
     3.4885      0.436560
     3.4890      0.437060
     3.4895      0.436620
     3.4900      0.436180
     3.4905      0.435810
     3.4910      0.435460
     3.4915      0.435560
     3.4920      0.436210
     3.4925      0.436850
     3.4930      0.437510
     3.4935      0.438160
     3.4940      0.438470
     3.4945      0.438670
     3.4950      0.438830
     3.4955      0.438940
     3.4960      0.439080
     3.4965      0.440020
     3.4970      0.440960
     3.4975      0.442200
     3.4980      0.443580
     3.4985      0.444480
     3.4990      0.444350
     3.4995      0.444220
     3.5000      0.443630
     3.5005      0.443020
     3.5010      0.442720
     3.5015      0.442630
     3.5020      0.442330
     3.5025      0.441280
     3.5030      0.440230
     3.5035      0.439390
     3.5040      0.438600
     3.5045      0.438500
     3.5050      0.439120
     3.5055      0.439700
     3.5060      0.440110
     3.5065      0.440510
     3.5070      0.440630
     3.5075      0.440650
     3.5080      0.440580
     3.5085      0.440360
     3.5090      0.440140
     3.5095      0.439180
     3.5100      0.438230
     3.5105      0.437330
     3.5110      0.436470
     3.5115      0.435700
     3.5120      0.435170
     3.5125      0.434640
     3.5130      0.433800
     3.5135      0.432930
     3.5140      0.432000
     3.5145      0.431010
     3.5150      0.430000
     3.5155      0.428840
     3.5160      0.427690
     3.5165      0.426640
     3.5170      0.425640
     3.5175      0.425050
     3.5180      0.425230
     3.5185      0.425420
     3.5190      0.425680
     3.5195      0.425940
     3.5200      0.425740
     3.5205      0.425200
     3.5210      0.424610
     3.5215      0.423820
     3.5220      0.423040
     3.5225      0.421890
     3.5230      0.420650
     3.5235      0.419480
     3.5240      0.418430
     3.5245      0.417390
     3.5250      0.416130
     3.5255      0.414860
     3.5260      0.413120
     3.5265      0.411070
     3.5270      0.409220
     3.5275      0.408150
     3.5280      0.407080
     3.5285      0.406120
     3.5290      0.405190
     3.5295      0.403930
     3.5300      0.402160
     3.5305      0.400400
     3.5310      0.399060
     3.5315      0.397730
     3.5320      0.396470
     3.5325      0.395270
     3.5330      0.394020
     3.5335      0.392540
     3.5340      0.391060
     3.5345      0.389080
     3.5350      0.386950
     3.5355      0.384700
     3.5360      0.382260
     3.5365      0.379820
     3.5370      0.378450
     3.5375      0.377130
     3.5380      0.375860
     3.5385      0.374640
     3.5390      0.373300
     3.5395      0.371180
     3.5400      0.369070
     3.5405      0.366810
     3.5410      0.364490
     3.5415      0.362200
     3.5420      0.359950
     3.5425      0.357710
     3.5430      0.356030
     3.5435      0.354430
     3.5440      0.352900
     3.5445      0.351450
     3.5450      0.349980
     3.5455      0.347820
     3.5460      0.345660
     3.5465      0.343480
     3.5470      0.341280
     3.5475      0.339150
     3.5480      0.337320
     3.5485      0.335500
     3.5490      0.333700
     3.5495      0.331920
     3.5500      0.330080
     3.5505      0.328110
     3.5510      0.326130
     3.5515      0.324450
     3.5520      0.322810
     3.5525      0.321550
     3.5530      0.320750
     3.5535      0.319930
     3.5540      0.318660
     3.5545      0.317390
     3.5550      0.315160
     3.5555      0.312250
     3.5560      0.309350
     3.5565      0.306490
     3.5570      0.303620
     3.5575      0.301790
     3.5580      0.300380
     3.5585      0.299010
     3.5590      0.297740
     3.5595      0.296470
     3.5600      0.294890
     3.5605      0.293240
     3.5610      0.291510
     3.5615      0.289670
     3.5620      0.287830
     3.5625      0.285650
     3.5630      0.283450
     3.5635      0.281460
     3.5640      0.279710
     3.5645      0.277960
     3.5650      0.276360
     3.5655      0.274750
     3.5660      0.273260
     3.5665      0.271840
     3.5670      0.270540
     3.5675      0.270070
     3.5680      0.269590
     3.5685      0.268430
     3.5690      0.266960
     3.5695      0.265220
     3.5700      0.262570
     3.5705      0.259920
     3.5710      0.257910
     3.5715      0.256100
