# author : Oliver Czoske
# source : Ester Aranzana
# date_created : 2017-11-20
# date_modified: 2025-12-16
# status: Measured at 80 K
# wavelength_unit : um
# changes :
# - 2022-03-17 (KL) Updated to match Ric Davies' email
# - 2023-06-06 (RD) Modified profiles after discussion with Schott
# - 2025-06-16 (FH) Updated filter curve based on Ric Davies' email.
# - 2025-12-16 (OC) Replaced with measured values
#
 wavelength  transmission
     0.4990      0.008470
     0.4995      0.008470
     0.5000      0.008910
     0.5005      0.003940
     0.5010      0.003820
     0.5015      0.010620
     0.5020      0.000000
     0.5025      0.006820
     0.5030      0.002190
     0.5035      0.009410
     0.5040      0.009090
     0.5045      0.000740
     0.5050      0.007490
     0.5055      0.000060
     0.5060      0.000000
     0.5065      0.003190
     0.5070      0.007460
     0.5075      0.000000
     0.5080      0.004210
     0.5085      0.010810
     0.5090      0.004690
     0.5095      0.006770
     0.5100      0.000860
     0.5105      0.000000
     0.5110      0.000720
     0.5115      0.004130
     0.5120      0.006720
     0.5125      0.001390
     0.5130      0.000000
     0.5135      0.005190
     0.5140      0.002730
     0.5145      0.003650
     0.5150      0.000280
     0.5155      0.004910
     0.5160      0.000000
     0.5165      0.000000
     0.5170      0.000000
     0.5175      0.003480
     0.5180      0.001970
     0.5185      0.001740
     0.5190      0.000000
     0.5195      0.005930
     0.5200      0.010870
     0.5205      0.004900
     0.5210      0.000590
     0.5215      0.005530
     0.5220      0.001980
     0.5225      0.004550
     0.5230      0.006820
     0.5235      0.000440
     0.5240      0.003250
     0.5245      0.005060
     0.5250      0.000000
     0.5255      0.001790
     0.5260      0.000320
     0.5265      0.005330
     0.5270      0.000720
     0.5275      0.001210
     0.5280      0.001010
     0.5285      0.000000
     0.5290      0.001120
     0.5295      0.004060
     0.5300      0.005710
     0.5305      0.000000
     0.5310      0.000000
     0.5315      0.001670
     0.5320      0.000000
     0.5325      0.007210
     0.5330      0.003200
     0.5335      0.000140
     0.5340      0.000670
     0.5345      0.000000
     0.5350      0.003530
     0.5355      0.000000
     0.5360      0.000270
     0.5365      0.000430
     0.5370      0.001150
     0.5375      0.000160
     0.5380      0.000510
     0.5385      0.002410
     0.5390      0.001330
     0.5395      0.002600
     0.5400      0.000000
     0.5405      0.000000
     0.5410      0.003340
     0.5415      0.000000
     0.5420      0.000000
     0.5425      0.002710
     0.5430      0.000000
     0.5435      0.000000
     0.5440      0.000000
     0.5445      0.001830
     0.5450      0.001850
     0.5455      0.001680
     0.5460      0.002870
     0.5465      0.002440
     0.5470      0.000740
     0.5475      0.003420
     0.5480      0.000000
     0.5485      0.000000
     0.5490      0.000520
     0.5495      0.001160
     0.5500      0.000050
     0.5505      0.003150
     0.5510      0.000000
     0.5515      0.000000
     0.5520      0.000660
     0.5525      0.000230
     0.5530      0.000130
     0.5535      0.000060
     0.5540      0.000000
     0.5545      0.000010
     0.5550      0.000040
     0.5555      0.000000
     0.5560      0.000660
     0.5565      0.000000
     0.5570      0.001350
     0.5575      0.001560
     0.5580      0.000000
     0.5585      0.000390
     0.5590      0.001800
     0.5595      0.000000
     0.5600      0.000000
     0.5605      0.000290
     0.5610      0.001190
     0.5615      0.000000
     0.5620      0.000400
     0.5625      0.000000
     0.5630      0.001980
     0.5635      0.000000
     0.5640      0.000410
     0.5645      0.000230
     0.5650      0.000530
     0.5655      0.000000
     0.5660      0.000570
     0.5665      0.000360
     0.5670      0.000000
     0.5675      0.000000
     0.5680      0.000080
     0.5685      0.000000
     0.5690      0.000850
     0.5695      0.000570
     0.5700      0.000430
     0.5705      0.000730
     0.5710      0.000110
     0.5715      0.000260
     0.5720      0.001180
     0.5725      0.000000
     0.5730      0.000640
     0.5735      0.000430
     0.5740      0.000600
     0.5745      0.000620
     0.5750      0.000030
     0.5755      0.000410
     0.5760      0.000020
     0.5765      0.000000
     0.5770      0.000850
     0.5775      0.000000
     0.5780      0.000000
     0.5785      0.000000
     0.5790      0.000590
     0.5795      0.000400
     0.5800      0.001870
     0.5805      0.001330
     0.5810      0.001590
     0.5815      0.000770
     0.5820      0.000000
     0.5825      0.000930
     0.5830      0.000020
     0.5835      0.000060
     0.5840      0.000000
     0.5845      0.000130
     0.5850      0.000010
     0.5855      0.000780
     0.5860      0.000000
     0.5865      0.000180
     0.5870      0.000000
     0.5875      0.000000
     0.5880      0.000670
     0.5885      0.000690
     0.5890      0.000000
     0.5895      0.000000
     0.5900      0.001930
     0.5905      0.000000
     0.5910      0.000730
     0.5915      0.000040
     0.5920      0.000000
     0.5925      0.001080
     0.5930      0.000130
     0.5935      0.000010
     0.5940      0.000080
     0.5945      0.000000
     0.5950      0.000000
     0.5955      0.000560
     0.5960      0.000290
     0.5965      0.000440
     0.5970      0.000260
     0.5975      0.000380
     0.5980      0.000130
     0.5985      0.000290
     0.5990      0.000180
     0.5995      0.000250
     0.6000      0.000050
     0.6005      0.000120
     0.6010      0.000000
     0.6015      0.000460
     0.6020      0.000200
     0.6025      0.000000
     0.6030      0.000530
     0.6035      0.000600
     0.6040      0.000320
     0.6045      0.000030
     0.6050      0.000500
     0.6055      0.000170
     0.6060      0.000000
     0.6065      0.000000
     0.6070      0.000410
     0.6075      0.000030
     0.6080      0.000020
     0.6085      0.000000
     0.6090      0.000000
     0.6095      0.000140
     0.6100      0.000170
     0.6105      0.000070
     0.6110      0.000100
     0.6115      0.000470
     0.6120      0.000090
     0.6125      0.000010
     0.6130      0.000680
     0.6135      0.000000
     0.6140      0.000270
     0.6145      0.000590
     0.6150      0.000160
     0.6155      0.000000
     0.6160      0.000000
     0.6165      0.000400
     0.6170      0.000000
     0.6175      0.000010
     0.6180      0.000160
     0.6185      0.000010
     0.6190      0.000310
     0.6195      0.000000
     0.6200      0.000040
     0.6205      0.000370
     0.6210      0.000000
     0.6215      0.000000
     0.6220      0.000150
     0.6225      0.000140
     0.6230      0.000080
     0.6235      0.000330
     0.6240      0.000240
     0.6245      0.000000
     0.6250      0.000000
     0.6255      0.000000
     0.6260      0.000000
     0.6265      0.000130
     0.6270      0.000060
     0.6275      0.000210
     0.6280      0.000050
     0.6285      0.000170
     0.6290      0.000000
     0.6295      0.000000
     0.6300      0.000000
     0.6305      0.000020
     0.6310      0.000110
     0.6315      0.000220
     0.6320      0.000610
     0.6325      0.001370
     0.6330      0.011050
     0.6335      0.000650
     0.6340      0.000600
     0.6345      0.000020
     0.6350      0.000050
     0.6355      0.000000
     0.6360      0.000000
     0.6365      0.000100
     0.6370      0.000500
     0.6375      0.000400
     0.6380      0.000380
     0.6385      0.000620
     0.6390      0.000690
     0.6395      0.001140
     0.6400      0.000880
     0.6405      0.000700
     0.6410      0.000680
     0.6415      0.001080
     0.6420      0.000690
     0.6425      0.001040
     0.6430      0.000590
     0.6435      0.000530
     0.6440      0.000620
     0.6445      0.000710
     0.6450      0.000570
     0.6455      0.000450
     0.6460      0.000230
     0.6465      0.000200
     0.6470      0.000260
     0.6475      0.000150
     0.6480      0.000050
     0.6485      0.000070
     0.6490      0.000000
     0.6495      0.000000
     0.6500      0.000020
     0.6505      0.000050
     0.6510      0.000000
     0.6515      0.000170
     0.6520      0.000060
     0.6525      0.000000
     0.6530      0.000170
     0.6535      0.000140
     0.6540      0.000000
     0.6545      0.000000
     0.6550      0.000270
     0.6555      0.000100
     0.6560      0.000070
     0.6565      0.000110
     0.6570      0.000080
     0.6575      0.000280
     0.6580      0.000240
     0.6585      0.000050
     0.6590      0.000250
     0.6595      0.000400
     0.6600      0.000300
     0.6605      0.000420
     0.6610      0.000400
     0.6615      0.000550
     0.6620      0.001130
     0.6625      0.001830
     0.6630      0.002060
     0.6635      0.002030
     0.6640      0.001480
     0.6645      0.000960
     0.6650      0.000390
     0.6655      0.000160
     0.6660      0.000120
     0.6665      0.000000
     0.6670      0.000020
     0.6675      0.000000
     0.6680      0.000240
     0.6685      0.000330
     0.6690      0.000560
     0.6695      0.000820
     0.6700      0.000970
     0.6705      0.001200
     0.6710      0.001550
     0.6715      0.001660
     0.6720      0.001660
     0.6725      0.001680
     0.6730      0.001780
     0.6735      0.002220
     0.6740      0.002160
     0.6745      0.002270
     0.6750      0.001960
     0.6755      0.001860
     0.6760      0.001280
     0.6765      0.001110
     0.6770      0.000680
     0.6775      0.000580
     0.6780      0.000690
     0.6785      0.000640
     0.6790      0.000720
     0.6795      0.000870
     0.6800      0.000950
     0.6805      0.001090
     0.6810      0.000830
     0.6815      0.000710
     0.6820      0.000180
     0.6825      0.000090
     0.6830      0.000110
     0.6835      0.000110
     0.6840      0.000160
     0.6845      0.000060
     0.6850      0.000110
     0.6855      0.000170
     0.6860      0.000250
     0.6865      0.000040
     0.6870      0.000000
     0.6875      0.000010
     0.6880      0.000000
     0.6885      0.000040
     0.6890      0.000210
     0.6895      0.000000
     0.6900      0.000180
     0.6905      0.000020
     0.6910      0.000010
     0.6915      0.000210
     0.6920      0.000040
     0.6925      0.000200
     0.6930      0.000260
     0.6935      0.000280
     0.6940      0.000360
     0.6945      0.000300
     0.6950      0.000100
     0.6955      0.000000
     0.6960      0.000030
     0.6965      0.000290
     0.6970      0.000160
     0.6975      0.000000
     0.6980      0.000080
     0.6985      0.000160
     0.6990      0.000080
     0.6995      0.000230
     0.7000      0.000040
     0.7005      0.000080
     0.7010      0.000180
     0.7015      0.000210
     0.7020      0.000260
     0.7025      0.000240
     0.7030      0.000310
     0.7035      0.000030
     0.7040      0.000080
     0.7045      0.000200
     0.7050      0.000140
     0.7055      0.000070
     0.7060      0.000220
     0.7065      0.000270
     0.7070      0.000050
     0.7075      0.000260
     0.7080      0.000120
     0.7085      0.000160
     0.7090      0.000150
     0.7095      0.000190
     0.7100      0.000090
     0.7105      0.000190
     0.7110      0.000310
     0.7115      0.000280
     0.7120      0.000460
     0.7125      0.000340
     0.7130      0.000350
     0.7135      0.000160
     0.7140      0.000110
     0.7145      0.000190
     0.7150      0.000010
     0.7155      0.000120
     0.7160      0.000090
     0.7165      0.000000
     0.7170      0.000050
     0.7175      0.000000
     0.7180      0.000000
     0.7185      0.000000
     0.7190      0.000000
     0.7195      0.000000
     0.7200      0.000000
     0.7205      0.000030
     0.7210      0.000040
     0.7215      0.000000
     0.7220      0.000170
     0.7225      0.000000
     0.7230      0.000000
     0.7235      0.000000
     0.7240      0.000140
     0.7245      0.000000
     0.7250      0.000000
     0.7255      0.000000
     0.7260      0.000000
     0.7265      0.000000
     0.7270      0.000010
     0.7275      0.000000
     0.7280      0.000010
     0.7285      0.000000
     0.7290      0.000000
     0.7295      0.000000
     0.7300      0.000120
     0.7305      0.000000
     0.7310      0.000000
     0.7315      0.000000
     0.7320      0.000000
     0.7325      0.000000
     0.7330      0.000000
     0.7335      0.000000
     0.7340      0.000000
     0.7345      0.000000
     0.7350      0.000000
     0.7355      0.000000
     0.7360      0.000000
     0.7365      0.000000
     0.7370      0.000020
     0.7375      0.000000
     0.7380      0.000270
     0.7385      0.001000
     0.7390      0.000970
     0.7395      0.000310
     0.7400      0.000140
     0.7405      0.000180
     0.7410      0.000110
     0.7415      0.000000
     0.7420      0.000060
     0.7425      0.000140
     0.7430      0.000140
     0.7435      0.000140
     0.7440      0.000200
     0.7445      0.000320
     0.7450      0.000660
     0.7455      0.000990
     0.7460      0.001740
     0.7465      0.002040
     0.7470      0.001410
     0.7475      0.000900
     0.7480      0.000550
     0.7485      0.000320
     0.7490      0.000060
     0.7495      0.000000
     0.7500      0.000000
     0.7505      0.000000
     0.7510      0.000000
     0.7515      0.000000
     0.7520      0.000000
     0.7525      0.000000
     0.7530      0.000000
     0.7535      0.000000
     0.7540      0.000000
     0.7545      0.000000
     0.7550      0.000000
     0.7555      0.000000
     0.7560      0.000330
     0.7565      0.000750
     0.7570      0.001660
     0.7575      0.002940
     0.7580      0.005230
     0.7585      0.009670
     0.7590      0.018660
     0.7595      0.037440
     0.7600      0.070400
     0.7605      0.102550
     0.7610      0.114620
     0.7615      0.112080
     0.7620      0.097980
     0.7625      0.071520
     0.7630      0.045010
     0.7635      0.027250
     0.7640      0.017060
     0.7645      0.011390
     0.7650      0.007840
     0.7655      0.005920
     0.7660      0.004660
     0.7665      0.003860
     0.7670      0.003410
     0.7675      0.003260
     0.7680      0.003020
     0.7685      0.002800
     0.7690      0.002550
     0.7695      0.002140
     0.7700      0.001660
     0.7705      0.001140
     0.7710      0.000780
     0.7715      0.000550
     0.7720      0.000300
     0.7725      0.000260
     0.7730      0.000080
     0.7735      0.000010
     0.7740      0.000000
     0.7745      0.000000
     0.7750      0.000000
     0.7755      0.000000
     0.7760      0.000000
     0.7765      0.000000
     0.7770      0.000000
     0.7775      0.000000
     0.7780      0.000000
     0.7785      0.000000
     0.7790      0.000000
     0.7795      0.000000
     0.7800      0.000000
     0.7805      0.000000
     0.7810      0.000080
     0.7815      0.000190
     0.7820      0.000320
     0.7825      0.000850
     0.7830      0.002260
     0.7835      0.004500
     0.7840      0.001800
     0.7845      0.000610
     0.7850      0.000160
     0.7855      0.000010
     0.7860      0.000000
     0.7865      0.000000
     0.7870      0.000000
     0.7875      0.000000
     0.7880      0.000000
     0.7885      0.000000
     0.7890      0.000000
     0.7895      0.000000
     0.7900      0.000000
     0.7905      0.000000
     0.7910      0.000000
     0.7915      0.000000
     0.7920      0.000000
     0.7925      0.000000
     0.7930      0.000000
     0.7935      0.000000
     0.7940      0.000000
     0.7945      0.000000
     0.7950      0.000000
     0.7955      0.000000
     0.7960      0.000000
     0.7965      0.000000
     0.7970      0.000000
     0.7975      0.000000
     0.7980      0.000000
     0.7985      0.000020
     0.7990      0.000180
     0.7995      0.000350
     0.8000      0.000650
     0.8005      0.001420
     0.8010      0.003960
     0.8015      0.012280
     0.8020      0.011640
     0.8025      0.005190
     0.8030      0.003320
     0.8035      0.002520
     0.8040      0.002520
     0.8045      0.003020
     0.8050      0.004680
     0.8055      0.011340
     0.8060      0.021170
     0.8065      0.005060
     0.8070      0.001580
     0.8075      0.000640
     0.8080      0.000280
     0.8085      0.000120
     0.8090      0.000080
     0.8095      0.000000
     0.8100      0.000000
     0.8105      0.000000
     0.8110      0.000000
     0.8115      0.000000
     0.8120      0.000010
     0.8125      0.000020
     0.8130      0.000040
     0.8135      0.000100
     0.8140      0.000100
     0.8145      0.000050
     0.8150      0.000010
     0.8155      0.000070
     0.8160      0.000010
     0.8165      0.000040
     0.8170      0.000020
     0.8175      0.000000
     0.8180      0.000080
     0.8185      0.000000
     0.8190      0.000050
     0.8195      0.000020
     0.8200      0.000040
     0.8205      0.000020
     0.8210      0.000100
     0.8215      0.000000
     0.8220      0.000000
     0.8225      0.000000
     0.8230      0.000000
     0.8235      0.000030
     0.8240      0.000100
     0.8245      0.000040
     0.8250      0.000000
     0.8255      0.000110
     0.8260      0.000040
     0.8265      0.000010
     0.8270      0.000060
     0.8275      0.000180
     0.8280      0.000170
     0.8285      0.000690
     0.8290      0.002400
     0.8295      0.002030
     0.8300      0.000630
     0.8305      0.000310
     0.8310      0.000160
     0.8315      0.000150
     0.8320      0.000150
     0.8325      0.000070
     0.8330      0.000020
     0.8335      0.000090
     0.8340      0.000060
     0.8345      0.000080
     0.8350      0.000040
     0.8355      0.000070
     0.8360      0.000050
     0.8365      0.000090
     0.8370      0.000060
     0.8375      0.000030
     0.8380      0.000100
     0.8385      0.000030
     0.8390      0.000080
     0.8395      0.000080
     0.8400      0.000130
     0.8405      0.000210
     0.8410      0.000290
     0.8415      0.000590
     0.8420      0.001470
     0.8425      0.005850
     0.8430      0.007330
     0.8435      0.001880
     0.8440      0.000780
     0.8445      0.000480
     0.8450      0.000310
     0.8455      0.000200
     0.8460      0.000110
     0.8465      0.000160
     0.8470      0.000090
     0.8475      0.000060
     0.8480      0.000030
     0.8485      0.000090
     0.8490      0.000020
     0.8495      0.000070
     0.8500      0.000090
     0.8505      0.000050
     0.8510      0.000070
     0.8515      0.000050
     0.8520      0.000100
     0.8525      0.000140
     0.8530      0.000060
     0.8535      0.000160
     0.8540      0.000300
     0.8545      0.000350
     0.8550      0.000520
     0.8555      0.000880
     0.8560      0.001920
     0.8565      0.005650
     0.8570      0.005540
     0.8575      0.001680
     0.8580      0.000680
     0.8585      0.000380
     0.8590      0.000210
     0.8595      0.000150
     0.8600      0.000100
     0.8605      0.000050
     0.8610      0.000020
     0.8615      0.000020
     0.8620      0.000000
     0.8625      0.000000
     0.8630      0.000000
     0.8635      0.000020
     0.8640      0.000000
     0.8645      0.000000
     0.8650      0.000040
     0.8655      0.000060
     0.8660      0.000030
     0.8665      0.000000
     0.8670      0.000000
     0.8675      0.000000
     0.8680      0.000030
     0.8685      0.000010
     0.8690      0.000000
     0.8695      0.000000
     0.8700      0.000010
     0.8705      0.000030
     0.8710      0.000030
     0.8715      0.000010
     0.8720      0.000000
     0.8725      0.000000
     0.8730      0.000000
     0.8735      0.000000
     0.8740      0.000000
     0.8745      0.000010
     0.8750      0.000000
     0.8755      0.000000
     0.8760      0.000000
     0.8765      0.000000
     0.8770      0.000000
     0.8775      0.000000
     0.8780      0.000000
     0.8785      0.000000
     0.8790      0.000000
     0.8795      0.000000
     0.8800      0.000000
     0.8805      0.000000
     0.8810      0.000000
     0.8815      0.000000
     0.8820      0.000000
     0.8825      0.000010
     0.8830      0.000000
     0.8835      0.000000
     0.8840      0.000010
     0.8845      0.000000
     0.8850      0.000000
     0.8855      0.000000
     0.8860      0.000030
     0.8865      0.000020
     0.8870      0.000000
     0.8875      0.000060
     0.8880      0.000100
     0.8885      0.000170
     0.8890      0.000260
     0.8895      0.000470
     0.8900      0.000800
     0.8905      0.001390
     0.8910      0.002510
     0.8915      0.003690
     0.8920      0.003790
     0.8925      0.002970
     0.8930      0.002090
     0.8935      0.001300
     0.8940      0.000700
     0.8945      0.000300
     0.8950      0.000060
     0.8955      0.000020
     0.8960      0.000000
     0.8965      0.000000
     0.8970      0.000000
     0.8975      0.000000
     0.8980      0.000000
     0.8985      0.000000
     0.8990      0.000000
     0.8995      0.000000
     0.9000      0.000000
     0.9005      0.000000
     0.9010      0.000000
     0.9015      0.000000
     0.9020      0.000000
     0.9025      0.000000
     0.9030      0.000000
     0.9035      0.000000
     0.9040      0.000020
     0.9045      0.000010
     0.9050      0.000000
     0.9055      0.000020
     0.9060      0.000000
     0.9065      0.000030
     0.9070      0.000030
     0.9075      0.000010
     0.9080      0.000010
     0.9085      0.000000
     0.9090      0.000000
     0.9095      0.000000
     0.9100      0.000000
     0.9105      0.000010
     0.9110      0.000010
     0.9115      0.000010
     0.9120      0.000020
     0.9125      0.000000
     0.9130      0.000000
     0.9135      0.000000
     0.9140      0.000000
     0.9145      0.000000
     0.9150      0.000000
     0.9155      0.000010
     0.9160      0.000000
     0.9165      0.000000
     0.9170      0.000000
     0.9175      0.000000
     0.9180      0.000000
     0.9185      0.000000
     0.9190      0.000000
     0.9195      0.000000
     0.9200      0.000000
     0.9205      0.000000
     0.9210      0.000020
     0.9215      0.000000
     0.9220      0.000010
     0.9225      0.000010
     0.9230      0.000020
     0.9235      0.000000
     0.9240      0.000000
     0.9245      0.000020
     0.9250      0.000000
     0.9255      0.000000
     0.9260      0.000020
     0.9265      0.000020
     0.9270      0.000030
     0.9275      0.000000
     0.9280      0.000000
     0.9285      0.000000
     0.9290      0.000000
     0.9295      0.000000
     0.9300      0.000010
     0.9305      0.000000
     0.9310      0.000000
     0.9315      0.000010
     0.9320      0.000020
     0.9325      0.000010
     0.9330      0.000030
     0.9335      0.000040
     0.9340      0.000070
     0.9345      0.000070
     0.9350      0.000060
     0.9355      0.000100
     0.9360      0.000090
     0.9365      0.000120
     0.9370      0.000150
     0.9375      0.000160
     0.9380      0.000140
     0.9385      0.000120
     0.9390      0.000140
     0.9395      0.000100
     0.9400      0.000100
     0.9405      0.000080
     0.9410      0.000100
     0.9415      0.000110
     0.9420      0.000080
     0.9425      0.000060
     0.9430      0.000050
     0.9435      0.000060
     0.9440      0.000060
     0.9445      0.000050
     0.9450      0.000060
     0.9455      0.000050
     0.9460      0.000030
     0.9465      0.000010
     0.9470      0.000030
     0.9475      0.000030
     0.9480      0.000040
     0.9485      0.000020
     0.9490      0.000010
     0.9495      0.000010
     0.9500      0.000000
     0.9505      0.000030
     0.9510      0.000000
     0.9515      0.000000
     0.9520      0.000010
     0.9525      0.000020
     0.9530      0.000030
     0.9535      0.000010
     0.9540      0.000000
     0.9545      0.000000
     0.9550      0.000000
     0.9555      0.000000
     0.9560      0.000000
     0.9565      0.000000
     0.9570      0.000020
     0.9575      0.000020
     0.9580      0.000020
     0.9585      0.000030
     0.9590      0.000010
     0.9595      0.000030
     0.9600      0.000020
     0.9605      0.000020
     0.9610      0.000040
     0.9615      0.000080
     0.9620      0.000040
     0.9625      0.000050
     0.9630      0.000060
     0.9635      0.000020
     0.9640      0.000020
     0.9645      0.000010
     0.9650      0.000000
     0.9655      0.000020
     0.9660      0.000010
     0.9665      0.000010
     0.9670      0.000000
     0.9675      0.000000
     0.9680      0.000000
     0.9685      0.000010
     0.9690      0.000020
     0.9695      0.000040
     0.9700      0.000000
     0.9705      0.000000
     0.9710      0.000010
     0.9715      0.000010
     0.9720      0.000000
     0.9725      0.000000
     0.9730      0.000000
     0.9735      0.000010
     0.9740      0.000020
     0.9745      0.000000
     0.9750      0.000030
     0.9755      0.000050
     0.9760      0.000020
     0.9765      0.000000
     0.9770      0.000020
     0.9775      0.000000
     0.9780      0.000010
     0.9785      0.000000
     0.9790      0.000000
     0.9795      0.000000
     0.9800      0.000030
     0.9805      0.000010
     0.9810      0.000010
     0.9815      0.000000
     0.9820      0.000010
     0.9825      0.000020
     0.9830      0.000010
     0.9835      0.000000
     0.9840      0.000000
     0.9845      0.000020
     0.9850      0.000000
     0.9855      0.000020
     0.9860      0.000000
     0.9865      0.000010
     0.9870      0.000010
     0.9875      0.000020
     0.9880      0.000000
     0.9885      0.000000
     0.9890      0.000000
     0.9895      0.000000
     0.9900      0.000010
     0.9905      0.000000
     0.9910      0.000000
     0.9915      0.000000
     0.9920      0.000000
     0.9925      0.000000
     0.9930      0.000000
     0.9935      0.000000
     0.9940      0.000000
     0.9945      0.000010
     0.9950      0.000000
     0.9955      0.000020
     0.9960      0.000000
     0.9965      0.000010
     0.9970      0.000000
     0.9975      0.000000
     0.9980      0.000000
     0.9985      0.000010
     0.9990      0.000010
     0.9995      0.000000
     1.0000      0.000020
     1.0005      0.000000
     1.0010      0.000000
     1.0015      0.000010
     1.0020      0.000000
     1.0025      0.000000
     1.0030      0.000010
     1.0035      0.000000
     1.0040      0.000020
     1.0045      0.000030
     1.0050      0.000000
     1.0055      0.000010
     1.0060      0.000000
     1.0065      0.000000
     1.0070      0.000010
     1.0075      0.000000
     1.0080      0.000000
     1.0085      0.000010
     1.0090      0.000000
     1.0095      0.000050
     1.0100      0.000010
     1.0105      0.000000
     1.0110      0.000000
     1.0115      0.000000
     1.0120      0.000000
     1.0125      0.000000
     1.0130      0.000020
     1.0135      0.000030
     1.0140      0.000020
     1.0145      0.000000
     1.0150      0.000000
     1.0155      0.000000
     1.0160      0.000000
     1.0165      0.000000
     1.0170      0.000010
     1.0175      0.000000
     1.0180      0.000010
     1.0185      0.000020
     1.0190      0.000000
     1.0195      0.000000
     1.0200      0.000000
     1.0205      0.000020
     1.0210      0.000030
     1.0215      0.000000
     1.0220      0.000010
     1.0225      0.000000
     1.0230      0.000030
     1.0235      0.000000
     1.0240      0.000000
     1.0245      0.000020
     1.0250      0.000010
     1.0255      0.000010
     1.0260      0.000030
     1.0265      0.000000
     1.0270      0.000030
     1.0275      0.000040
     1.0280      0.000020
     1.0285      0.000010
     1.0290      0.000010
     1.0295      0.000010
     1.0300      0.000010
     1.0305      0.000010
     1.0310      0.000030
     1.0315      0.000000
     1.0320      0.000010
     1.0325      0.000010
     1.0330      0.000020
     1.0335      0.000000
     1.0340      0.000000
     1.0345      0.000030
     1.0350      0.000020
     1.0355      0.000000
     1.0360      0.000000
     1.0365      0.000000
     1.0370      0.000010
     1.0375      0.000020
     1.0380      0.000020
     1.0385      0.000000
     1.0390      0.000020
     1.0395      0.000000
     1.0400      0.000010
     1.0405      0.000020
     1.0410      0.000010
     1.0415      0.000000
     1.0420      0.000000
     1.0425      0.000000
     1.0430      0.000010
     1.0435      0.000000
     1.0440      0.000000
     1.0445      0.000010
     1.0450      0.000040
     1.0455      0.000000
     1.0460      0.000020
     1.0465      0.000020
     1.0470      0.000010
     1.0475      0.000010
     1.0480      0.000010
     1.0485      0.000000
     1.0490      0.000000
     1.0495      0.000010
     1.0500      0.000030
     1.0505      0.000000
     1.0510      0.000020
     1.0515      0.000030
     1.0520      0.000010
     1.0525      0.000020
     1.0530      0.000000
     1.0535      0.000000
     1.0540      0.000000
     1.0545      0.000000
     1.0550      0.000030
     1.0555      0.000000
     1.0560      0.000000
     1.0565      0.000000
     1.0570      0.000010
     1.0575      0.000010
     1.0580      0.000010
     1.0585      0.000020
     1.0590      0.000000
     1.0595      0.000010
     1.0600      0.000030
     1.0605      0.000020
     1.0610      0.000030
     1.0615      0.000000
     1.0620      0.000020
     1.0625      0.000010
     1.0630      0.000000
     1.0635      0.000020
     1.0640      0.000020
     1.0645      0.000010
     1.0650      0.000010
     1.0655      0.000000
     1.0660      0.000000
     1.0665      0.000010
     1.0670      0.000010
     1.0675      0.000000
     1.0680      0.000000
     1.0685      0.000070
     1.0690      0.000040
     1.0695      0.000020
     1.0700      0.000050
     1.0705      0.000030
     1.0710      0.000000
     1.0715      0.000000
     1.0720      0.000040
     1.0725      0.000010
     1.0730      0.000020
     1.0735      0.000000
     1.0740      0.000040
     1.0745      0.000020
     1.0750      0.000010
     1.0755      0.000010
     1.0760      0.000010
     1.0765      0.000000
     1.0770      0.000040
     1.0775      0.000010
     1.0780      0.000020
     1.0785      0.000050
     1.0790      0.000050
     1.0795      0.000030
     1.0800      0.000040
     1.0805      0.000080
     1.0810      0.000000
     1.0815      0.000000
     1.0820      0.000060
     1.0825      0.000030
     1.0830      0.000000
     1.0835      0.000030
     1.0840      0.000010
     1.0845      0.000000
     1.0850      0.000020
     1.0855      0.000000
     1.0860      0.000000
     1.0865      0.000000
     1.0870      0.000030
     1.0875      0.000000
     1.0880      0.000000
     1.0885      0.000010
     1.0890      0.000000
     1.0895      0.000010
     1.0900      0.000010
     1.0905      0.000000
     1.0910      0.000070
     1.0915      0.000010
     1.0920      0.000020
     1.0925      0.000000
     1.0930      0.000000
     1.0935      0.000070
     1.0940      0.000050
     1.0945      0.000000
     1.0950      0.000040
     1.0955      0.000020
     1.0960      0.000000
     1.0965      0.000100
     1.0970      0.000150
     1.0975      0.000000
     1.0980      0.000230
     1.0985      0.000000
     1.0990      0.000060
     1.0995      0.000050
     1.1000      0.000000
     1.1005      0.000020
     1.1010      0.000000
     1.1015      0.000030
     1.1020      0.000030
     1.1025      0.000000
     1.1030      0.000030
     1.1035      0.000010
     1.1040      0.000040
     1.1045      0.000020
     1.1050      0.000020
     1.1055      0.000050
     1.1060      0.000060
     1.1065      0.000010
     1.1070      0.000020
     1.1075      0.000000
     1.1080      0.000030
     1.1085      0.000090
     1.1090      0.000070
     1.1095      0.000010
     1.1100      0.000020
     1.1105      0.000000
     1.1110      0.000060
     1.1115      0.002200
     1.1120      0.000530
     1.1125      0.000000
     1.1130      0.000000
     1.1135      0.001630
     1.1140      0.000150
     1.1145      0.000000
     1.1150      0.000000
     1.1155      0.001480
     1.1160      0.000000
     1.1165      0.000240
     1.1170      0.000000
     1.1175      0.000660
     1.1180      0.000000
     1.1185      0.000080
     1.1190      0.000000
     1.1195      0.000180
     1.1200      0.002310
     1.1205      0.000000
     1.1210      0.000000
     1.1215      0.000000
     1.1220      0.001010
     1.1225      0.000260
     1.1230      0.001320
     1.1235      0.002040
     1.1240      0.000580
     1.1245      0.000050
     1.1250      0.000760
     1.1255      0.000000
     1.1260      0.000000
     1.1265      0.000160
     1.1270      0.000020
     1.1275      0.000950
     1.1280      0.002040
     1.1285      0.000500
     1.1290      0.000020
     1.1295      0.000600
     1.1300      0.000170
     1.1305      0.000080
     1.1310      0.001560
     1.1315      0.001860
     1.1320      0.002420
     1.1325      0.000130
     1.1330      0.000000
     1.1335      0.000000
     1.1340      0.002810
     1.1345      0.000060
     1.1350      0.000510
     1.1355      0.000310
     1.1360      0.000280
     1.1365      0.000000
     1.1370      0.003610
     1.1375      0.000000
     1.1380      0.000000
     1.1385      0.000150
     1.1390      0.000000
     1.1395      0.000000
     1.1400      0.000000
     1.1405      0.000440
     1.1410      0.000930
     1.1415      0.000000
     1.1420      0.000550
     1.1425      0.000760
     1.1430      0.001300
     1.1435      0.000310
     1.1440      0.001040
     1.1445      0.001870
     1.1450      0.000000
     1.1455      0.000000
     1.1460      0.000000
     1.1465      0.000000
     1.1470      0.000860
     1.1475      0.000000
     1.1480      0.000710
     1.1485      0.000000
     1.1490      0.000520
     1.1495      0.001480
     1.1500      0.000000
     1.1505      0.000320
     1.1510      0.000040
     1.1515      0.002040
     1.1520      0.001760
     1.1525      0.000370
     1.1530      0.000000
     1.1535      0.000950
     1.1540      0.000430
     1.1545      0.000030
     1.1550      0.000000
     1.1555      0.000000
     1.1560      0.002070
     1.1565      0.000180
     1.1570      0.001410
     1.1575      0.001100
     1.1580      0.000820
     1.1585      0.000260
     1.1590      0.000150
     1.1595      0.000980
     1.1600      0.000810
     1.1605      0.001340
     1.1610      0.000090
     1.1615      0.000430
     1.1620      0.000000
     1.1625      0.001810
     1.1630      0.002530
     1.1635      0.001310
     1.1640      0.001490
     1.1645      0.000950
     1.1650      0.000470
     1.1655      0.000370
     1.1660      0.000720
     1.1665      0.001310
     1.1670      0.000990
     1.1675      0.000460
     1.1680      0.001240
     1.1685      0.000000
     1.1690      0.001010
     1.1695      0.000310
     1.1700      0.001110
     1.1705      0.000330
     1.1710      0.001580
     1.1715      0.001330
     1.1720      0.001980
     1.1725      0.001690
     1.1730      0.002380
     1.1735      0.001940
     1.1740      0.002270
     1.1745      0.002110
     1.1750      0.003070
     1.1755      0.001610
     1.1760      0.001820
     1.1765      0.000550
     1.1770      0.001950
     1.1775      0.000000
     1.1780      0.001060
     1.1785      0.001530
     1.1790      0.002410
     1.1795      0.002430
     1.1800      0.001960
     1.1805      0.003100
     1.1810      0.003650
     1.1815      0.000070
     1.1820      0.002170
     1.1825      0.001350
     1.1830      0.001630
     1.1835      0.003400
     1.1840      0.001640
     1.1845      0.000360
     1.1850      0.001660
     1.1855      0.001630
     1.1860      0.001480
     1.1865      0.000920
     1.1870      0.001380
     1.1875      0.001300
     1.1880      0.001370
     1.1885      0.000760
     1.1890      0.000880
     1.1895      0.000000
     1.1900      0.002450
     1.1905      0.000000
     1.1910      0.002230
     1.1915      0.002380
     1.1920      0.001060
     1.1925      0.002770
     1.1930      0.000000
     1.1935      0.002630
     1.1940      0.002170
     1.1945      0.001860
     1.1950      0.001330
     1.1955      0.002950
     1.1960      0.000010
     1.1965      0.000540
     1.1970      0.000570
     1.1975      0.001500
     1.1980      0.000000
     1.1985      0.000590
     1.1990      0.000440
     1.1995      0.002700
     1.2000      0.003730
     1.2005      0.002410
     1.2010      0.001920
     1.2015      0.001650
     1.2020      0.001920
     1.2025      0.000360
     1.2030      0.000000
     1.2035      0.000220
     1.2040      0.000290
     1.2045      0.000050
     1.2050      0.000040
     1.2055      0.001060
     1.2060      0.000510
     1.2065      0.000000
     1.2070      0.000020
     1.2075      0.000020
     1.2080      0.000000
     1.2085      0.000970
     1.2090      0.000180
     1.2095      0.000470
     1.2100      0.000790
     1.2105      0.000000
     1.2110      0.000000
     1.2115      0.000000
     1.2120      0.000190
     1.2125      0.000000
     1.2130      0.000000
     1.2135      0.001060
     1.2140      0.000000
     1.2145      0.000400
     1.2150      0.000000
     1.2155      0.000140
     1.2160      0.000360
     1.2165      0.000000
     1.2170      0.000000
     1.2175      0.000000
     1.2180      0.000590
     1.2185      0.000000
     1.2190      0.000000
     1.2195      0.000000
     1.2200      0.000000
     1.2205      0.000000
     1.2210      0.000810
     1.2215      0.000000
     1.2220      0.000000
     1.2225      0.000210
     1.2230      0.000000
     1.2235      0.000000
     1.2240      0.001010
     1.2245      0.000660
     1.2250      0.000520
     1.2255      0.000000
     1.2260      0.000000
     1.2265      0.000000
     1.2270      0.000000
     1.2275      0.000000
     1.2280      0.000000
     1.2285      0.000000
     1.2290      0.000000
     1.2295      0.000000
     1.2300      0.000000
     1.2305      0.000000
     1.2310      0.000000
     1.2315      0.000000
     1.2320      0.000000
     1.2325      0.000610
     1.2330      0.000060
     1.2335      0.000020
     1.2340      0.000000
     1.2345      0.000290
     1.2350      0.000470
     1.2355      0.000000
     1.2360      0.000010
     1.2365      0.000000
     1.2370      0.000540
     1.2375      0.000260
     1.2380      0.000690
     1.2385      0.000100
     1.2390      0.000080
     1.2395      0.001610
     1.2400      0.002310
     1.2405      0.005960
     1.2410      0.005570
     1.2415      0.004810
     1.2420      0.008160
     1.2425      0.010210
     1.2430      0.015050
     1.2435      0.019530
     1.2440      0.025870
     1.2445      0.034290
     1.2450      0.044940
     1.2455      0.063320
     1.2460      0.088610
     1.2465      0.119650
     1.2470      0.160670
     1.2475      0.214160
     1.2480      0.284220
     1.2485      0.367780
     1.2490      0.460290
     1.2495      0.556630
     1.2500      0.651540
     1.2505      0.734550
     1.2510      0.802900
     1.2515      0.855430
     1.2520      0.894570
     1.2525      0.920920
     1.2530      0.939680
     1.2535      0.951450
     1.2540      0.957740
     1.2545      0.963840
     1.2550      0.966800
     1.2555      0.967510
     1.2560      0.967100
     1.2565      0.965850
     1.2570      0.963520
     1.2575      0.961980
     1.2580      0.962610
     1.2585      0.958770
     1.2590      0.954230
     1.2595      0.953710
     1.2600      0.952510
     1.2605      0.952200
     1.2610      0.946560
     1.2615      0.946550
     1.2620      0.947000
     1.2625      0.947040
     1.2630      0.946220
     1.2635      0.947430
     1.2640      0.945800
     1.2645      0.949740
     1.2650      0.951180
     1.2655      0.954600
     1.2660      0.956420
     1.2665      0.956970
     1.2670      0.962290
     1.2675      0.964590
     1.2680      0.970480
     1.2685      0.973190
     1.2690      0.978110
     1.2695      0.981980
     1.2700      0.986690
     1.2705      0.990350
     1.2710      0.991500
     1.2715      0.996540
     1.2720      0.997560
     1.2725      1.000790
     1.2730      1.003070
     1.2735      1.005000
     1.2740      1.008930
     1.2745      1.008490
     1.2750      1.011730
     1.2755      1.009190
     1.2760      1.010440
     1.2765      1.011990
     1.2770      1.010570
     1.2775      1.012720
     1.2780      1.011070
     1.2785      1.014340
     1.2790      1.011550
     1.2795      1.011610
     1.2800      1.013160
     1.2805      1.010990
     1.2810      1.010280
     1.2815      1.008940
     1.2820      1.007630
     1.2825      1.008450
     1.2830      1.006850
     1.2835      1.006110
     1.2840      1.003840
     1.2845      1.001940
     1.2850      1.003540
     1.2855      0.998890
     1.2860      0.999390
     1.2865      0.996490
     1.2870      0.994120
     1.2875      0.988430
     1.2880      0.987420
     1.2885      0.981730
     1.2890      0.975980
     1.2895      0.969390
     1.2900      0.962520
     1.2905      0.952320
     1.2910      0.941510
     1.2915      0.931960
     1.2920      0.920060
     1.2925      0.905570
     1.2930      0.896430
     1.2935      0.885500
     1.2940      0.874430
     1.2945      0.868100
     1.2950      0.864530
     1.2955      0.863190
     1.2960      0.867840
     1.2965      0.874660
     1.2970      0.885740
     1.2975      0.896340
     1.2980      0.903560
     1.2985      0.899030
     1.2990      0.866840
     1.2995      0.800560
     1.3000      0.699220
     1.3005      0.570830
     1.3010      0.440980
     1.3015      0.325710
     1.3020      0.234850
     1.3025      0.168090
     1.3030      0.120310
     1.3035      0.090250
     1.3040      0.064310
     1.3045      0.047850
     1.3050      0.036710
     1.3055      0.027290
     1.3060      0.022180
     1.3065      0.019490
     1.3070      0.015990
     1.3075      0.012600
     1.3080      0.011180
     1.3085      0.009680
     1.3090      0.009320
     1.3095      0.009100
     1.3100      0.008160
     1.3105      0.007120
     1.3110      0.007250
     1.3115      0.006270
     1.3120      0.005510
     1.3125      0.005610
     1.3130      0.005370
     1.3135      0.003160
     1.3140      0.005510
     1.3145      0.003490
     1.3150      0.005620
     1.3155      0.004590
     1.3160      0.003860
     1.3165      0.003010
     1.3170      0.004100
     1.3175      0.003860
     1.3180      0.003550
     1.3185      0.003650
     1.3190      0.002960
     1.3195      0.003170
     1.3200      0.004170
     1.3205      0.002780
     1.3210      0.004080
     1.3215      0.004060
     1.3220      0.004230
     1.3225      0.003400
     1.3230      0.002490
     1.3235      0.003530
     1.3240      0.003550
     1.3245      0.004300
     1.3250      0.002460
     1.3255      0.002390
     1.3260      0.003370
     1.3265      0.002870
     1.3270      0.002830
     1.3275      0.001990
     1.3280      0.003270
     1.3285      0.003440
     1.3290      0.003940
     1.3295      0.002720
     1.3300      0.002830
     1.3305      0.003170
     1.3310      0.003050
     1.3315      0.002860
     1.3320      0.003520
     1.3325      0.002380
     1.3330      0.001620
     1.3335      0.003360
     1.3340      0.003650
     1.3345      0.002360
     1.3350      0.002980
     1.3355      0.002540
     1.3360      0.002770
     1.3365      0.002440
     1.3370      0.002640
     1.3375      0.001740
     1.3380      0.001640
     1.3385      0.002780
     1.3390      0.002780
     1.3395      0.003070
     1.3400      0.001560
     1.3405      0.002230
     1.3410      0.002870
     1.3415      0.001500
     1.3420      0.001840
     1.3425      0.003970
     1.3430      0.002040
     1.3435      0.002570
     1.3440      0.002680
     1.3445      0.001920
     1.3450      0.002030
     1.3455      0.002430
     1.3460      0.001330
     1.3465      0.001950
     1.3470      0.000620
     1.3475      0.001350
     1.3480      0.002920
     1.3485      0.001400
     1.3490      0.001650
     1.3495      0.002660
     1.3500      0.002100
     1.3505      0.002120
     1.3510      0.002470
     1.3515      0.001210
     1.3520      0.002290
     1.3525      0.001830
     1.3530      0.000970
     1.3535      0.001320
     1.3540      0.001070
     1.3545      0.000640
     1.3550      0.000140
     1.3555      0.000050
     1.3560      0.000000
     1.3565      0.001060
     1.3570      0.000000
     1.3575      0.000550
     1.3580      0.000220
     1.3585      0.001520
     1.3590      0.001130
     1.3595      0.000050
     1.3600      0.000160
     1.3605      0.000000
     1.3610      0.000000
     1.3615      0.000240
     1.3620      0.000000
     1.3625      0.000220
     1.3630      0.000000
     1.3635      0.000000
     1.3640      0.000220
     1.3645      0.000000
     1.3650      0.000000
     1.3655      0.000550
     1.3660      0.000000
     1.3665      0.000000
     1.3670      0.000170
     1.3675      0.000000
     1.3680      0.000090
     1.3685      0.000000
     1.3690      0.000000
     1.3695      0.000070
     1.3700      0.000500
     1.3705      0.000400
     1.3710      0.000000
     1.3715      0.000020
     1.3720      0.000410
     1.3725      0.000130
     1.3730      0.000510
     1.3735      0.000150
     1.3740      0.000000
     1.3745      0.000610
     1.3750      0.000010
     1.3755      0.000000
     1.3760      0.000690
     1.3765      0.000300
     1.3770      0.000020
     1.3775      0.000070
     1.3780      0.001230
     1.3785      0.000840
     1.3790      0.000400
     1.3795      0.001010
     1.3800      0.001110
     1.3805      0.000070
     1.3810      0.000000
     1.3815      0.000000
     1.3820      0.000010
     1.3825      0.000770
     1.3830      0.000240
     1.3835      0.000000
     1.3840      0.000000
     1.3845      0.000000
     1.3850      0.000000
     1.3855      0.000140
     1.3860      0.000000
     1.3865      0.000610
     1.3870      0.000050
     1.3875      0.000150
     1.3880      0.000220
     1.3885      0.000370
     1.3890      0.000470
     1.3895      0.000000
     1.3900      0.000150
     1.3905      0.000390
     1.3910      0.000280
     1.3915      0.000460
     1.3920      0.000740
     1.3925      0.000120
     1.3930      0.000000
     1.3935      0.000000
     1.3940      0.000900
     1.3945      0.001080
     1.3950      0.000350
     1.3955      0.000000
     1.3960      0.000000
     1.3965      0.001440
     1.3970      0.001040
     1.3975      0.000720
     1.3980      0.000070
     1.3985      0.001470
     1.3990      0.001160
     1.3995      0.000000
     1.4000      0.000290
     1.4005      0.000610
     1.4010      0.000860
     1.4015      0.000000
     1.4020      0.000250
     1.4025      0.000750
     1.4030      0.000050
     1.4035      0.000000
     1.4040      0.000000
     1.4045      0.000000
     1.4050      0.000010
     1.4055      0.000030
     1.4060      0.000650
     1.4065      0.000000
     1.4070      0.000560
     1.4075      0.000440
     1.4080      0.000220
     1.4085      0.000000
     1.4090      0.000540
     1.4095      0.000500
     1.4100      0.000240
     1.4105      0.001210
     1.4110      0.000890
     1.4115      0.000060
     1.4120      0.000000
     1.4125      0.000000
     1.4130      0.000000
     1.4135      0.000020
     1.4140      0.000000
     1.4145      0.000000
     1.4150      0.000000
     1.4155      0.000160
     1.4160      0.000450
     1.4165      0.000520
     1.4170      0.000440
     1.4175      0.000000
     1.4180      0.000850
     1.4185      0.000350
     1.4190      0.000000
     1.4195      0.000000
     1.4200      0.000000
     1.4205      0.000000
     1.4210      0.000800
     1.4215      0.000290
     1.4220      0.000000
     1.4225      0.000000
     1.4230      0.000650
     1.4235      0.000020
     1.4240      0.000000
     1.4245      0.000000
     1.4250      0.000330
     1.4255      0.000470
     1.4260      0.000000
     1.4265      0.001080
     1.4270      0.000280
     1.4275      0.001030
     1.4280      0.000000
     1.4285      0.000660
     1.4290      0.001290
     1.4295      0.000590
     1.4300      0.000490
     1.4305      0.000000
     1.4310      0.000230
     1.4315      0.000540
     1.4320      0.000640
     1.4325      0.000360
     1.4330      0.000390
     1.4335      0.000960
     1.4340      0.000100
     1.4345      0.001660
     1.4350      0.000000
     1.4355      0.000000
     1.4360      0.000080
     1.4365      0.000200
     1.4370      0.000000
     1.4375      0.000000
     1.4380      0.000010
     1.4385      0.000120
     1.4390      0.000000
     1.4395      0.000000
     1.4400      0.000360
     1.4405      0.000580
     1.4410      0.000000
     1.4415      0.000000
     1.4420      0.000650
     1.4425      0.000130
     1.4430      0.000000
     1.4435      0.000000
     1.4440      0.000000
     1.4445      0.000220
     1.4450      0.000040
     1.4455      0.000370
     1.4460      0.001770
     1.4465      0.000680
     1.4470      0.000240
     1.4475      0.000200
     1.4480      0.000000
     1.4485      0.000000
     1.4490      0.000000
     1.4495      0.000000
     1.4500      0.000050
     1.4505      0.000000
     1.4510      0.000930
     1.4515      0.000720
     1.4520      0.000610
     1.4525      0.000000
     1.4530      0.000180
     1.4535      0.000180
     1.4540      0.000000
     1.4545      0.000180
     1.4550      0.000360
     1.4555      0.000740
     1.4560      0.000000
     1.4565      0.000000
     1.4570      0.000010
     1.4575      0.000400
     1.4580      0.000000
     1.4585      0.000350
     1.4590      0.000240
     1.4595      0.000670
     1.4600      0.000730
     1.4605      0.000550
     1.4610      0.000000
     1.4615      0.000060
     1.4620      0.000000
     1.4625      0.000260
     1.4630      0.001560
     1.4635      0.000010
     1.4640      0.000310
     1.4645      0.001370
     1.4650      0.000040
     1.4655      0.000470
     1.4660      0.000000
     1.4665      0.000540
     1.4670      0.000640
     1.4675      0.000550
     1.4680      0.000880
     1.4685      0.000210
     1.4690      0.000000
     1.4695      0.001180
     1.4700      0.001090
     1.4705      0.000490
     1.4710      0.001260
     1.4715      0.000630
     1.4720      0.000120
     1.4725      0.000180
     1.4730      0.001270
     1.4735      0.000570
     1.4740      0.000500
     1.4745      0.000170
     1.4750      0.000290
     1.4755      0.000000
     1.4760      0.000190
     1.4765      0.000700
     1.4770      0.001190
     1.4775      0.000900
     1.4780      0.000230
     1.4785      0.000000
     1.4790      0.000000
     1.4795      0.000280
     1.4800      0.000610
     1.4805      0.000480
     1.4810      0.000790
     1.4815      0.001010
     1.4820      0.000500
     1.4825      0.000250
     1.4830      0.000610
     1.4835      0.000000
     1.4840      0.000000
     1.4845      0.000590
     1.4850      0.000110
     1.4855      0.000330
     1.4860      0.000000
     1.4865      0.000000
     1.4870      0.000020
     1.4875      0.000060
     1.4880      0.000590
     1.4885      0.000010
     1.4890      0.000130
     1.4895      0.000210
     1.4900      0.000000
     1.4905      0.000000
     1.4910      0.000000
     1.4915      0.000380
     1.4920      0.000000
     1.4925      0.000000
     1.4930      0.000000
     1.4935      0.000090
     1.4940      0.000140
     1.4945      0.000000
     1.4950      0.000000
     1.4955      0.000000
     1.4960      0.000610
     1.4965      0.000390
     1.4970      0.000460
     1.4975      0.000160
     1.4980      0.000010
     1.4985      0.000630
     1.4990      0.000080
     1.4995      0.000320
     1.5000      0.000540
     1.5005      0.000900
     1.5010      0.000080
     1.5015      0.000000
     1.5020      0.000000
     1.5025      0.000000
     1.5030      0.000030
     1.5035      0.000020
     1.5040      0.000000
     1.5045      0.000000
     1.5050      0.000990
     1.5055      0.000550
     1.5060      0.000210
     1.5065      0.000550
     1.5070      0.000400
     1.5075      0.000000
     1.5080      0.000700
     1.5085      0.000350
     1.5090      0.000000
     1.5095      0.000000
     1.5100      0.000880
     1.5105      0.000250
     1.5110      0.000000
     1.5115      0.000000
     1.5120      0.000380
     1.5125      0.000390
     1.5130      0.000120
     1.5135      0.000260
     1.5140      0.000880
     1.5145      0.000710
     1.5150      0.000910
     1.5155      0.000000
     1.5160      0.000200
     1.5165      0.000690
     1.5170      0.000000
     1.5175      0.000000
     1.5180      0.000000
     1.5185      0.000000
     1.5190      0.000000
     1.5195      0.000000
     1.5200      0.000000
     1.5205      0.000000
     1.5210      0.000000
     1.5215      0.000270
     1.5220      0.000000
     1.5225      0.000000
     1.5230      0.000130
     1.5235      0.001180
     1.5240      0.000370
     1.5245      0.000000
     1.5250      0.000750
     1.5255      0.000030
     1.5260      0.000260
     1.5265      0.000790
     1.5270      0.000360
     1.5275      0.000110
     1.5280      0.000000
     1.5285      0.000180
     1.5290      0.000000
     1.5295      0.000000
     1.5300      0.000000
     1.5305      0.000000
     1.5310      0.000000
     1.5315      0.000000
     1.5320      0.000000
     1.5325      0.000450
     1.5330      0.000670
     1.5335      0.000150
     1.5340      0.000580
     1.5345      0.000670
     1.5350      0.000000
     1.5355      0.000870
     1.5360      0.000250
     1.5365      0.000000
     1.5370      0.000000
     1.5375      0.000880
     1.5380      0.000000
     1.5385      0.000040
     1.5390      0.000420
     1.5395      0.001090
     1.5400      0.000010
     1.5405      0.000010
     1.5410      0.000790
     1.5415      0.000840
     1.5420      0.000330
     1.5425      0.000600
     1.5430      0.000000
     1.5435      0.000280
     1.5440      0.000000
     1.5445      0.000000
     1.5450      0.000000
     1.5455      0.001080
     1.5460      0.000580
     1.5465      0.000930
     1.5470      0.000060
     1.5475      0.000650
     1.5480      0.000050
     1.5485      0.000000
     1.5490      0.000020
     1.5495      0.000000
     1.5500      0.000000
     1.5505      0.000540
     1.5510      0.000000
     1.5515      0.000530
     1.5520      0.000050
     1.5525      0.000030
     1.5530      0.000390
     1.5535      0.000910
     1.5540      0.001160
     1.5545      0.000870
     1.5550      0.000010
     1.5555      0.000070
     1.5560      0.000140
     1.5565      0.000180
     1.5570      0.000000
     1.5575      0.000000
     1.5580      0.000200
     1.5585      0.000110
     1.5590      0.000000
     1.5595      0.000000
     1.5600      0.000800
     1.5605      0.000200
     1.5610      0.000000
     1.5615      0.000000
     1.5620      0.000310
     1.5625      0.000700
     1.5630      0.000150
     1.5635      0.000730
     1.5640      0.000450
     1.5645      0.000200
     1.5650      0.000000
     1.5655      0.000000
     1.5660      0.000100
     1.5665      0.000970
     1.5670      0.000060
     1.5675      0.000000
     1.5680      0.000010
     1.5685      0.000000
     1.5690      0.000110
     1.5695      0.001220
     1.5700      0.001280
     1.5705      0.000160
     1.5710      0.000010
     1.5715      0.000940
     1.5720      0.000230
     1.5725      0.001240
     1.5730      0.000040
     1.5735      0.000590
     1.5740      0.000300
     1.5745      0.000100
     1.5750      0.000000
     1.5755      0.000510
     1.5760      0.000070
     1.5765      0.000000
     1.5770      0.000250
     1.5775      0.000000
     1.5780      0.000260
     1.5785      0.000360
     1.5790      0.000290
     1.5795      0.000000
     1.5800      0.000670
     1.5805      0.000220
     1.5810      0.000390
     1.5815      0.000020
     1.5820      0.000000
     1.5825      0.001130
     1.5830      0.000670
     1.5835      0.001310
     1.5840      0.001310
     1.5845      0.001930
     1.5850      0.000130
     1.5855      0.001020
     1.5860      0.000410
     1.5865      0.000120
     1.5870      0.000800
     1.5875      0.000080
     1.5880      0.000380
     1.5885      0.000000
     1.5890      0.000000
     1.5895      0.000060
     1.5900      0.000580
     1.5905      0.000000
     1.5910      0.000490
     1.5915      0.000110
     1.5920      0.000010
     1.5925      0.000060
     1.5930      0.000000
     1.5935      0.000000
     1.5940      0.000160
     1.5945      0.000640
     1.5950      0.000110
     1.5955      0.000220
     1.5960      0.000210
     1.5965      0.000510
     1.5970      0.000350
     1.5975      0.000000
     1.5980      0.000060
     1.5985      0.000460
     1.5990      0.000050
     1.5995      0.000240
     1.6000      0.000000
     1.6005      0.000000
     1.6010      0.000240
     1.6015      0.001060
     1.6020      0.000400
     1.6025      0.000150
     1.6030      0.000000
     1.6035      0.000000
     1.6040      0.000130
     1.6045      0.000000
     1.6050      0.000740
     1.6055      0.000190
     1.6060      0.000090
     1.6065      0.000400
     1.6070      0.000710
     1.6075      0.000070
     1.6080      0.000240
     1.6085      0.000730
     1.6090      0.000800
     1.6095      0.000030
     1.6100      0.000000
     1.6105      0.000100
     1.6110      0.000000
     1.6115      0.000000
     1.6120      0.000170
     1.6125      0.000180
     1.6130      0.000290
     1.6135      0.000290
     1.6140      0.000260
     1.6145      0.001000
     1.6150      0.000110
     1.6155      0.000080
     1.6160      0.000010
     1.6165      0.000000
     1.6170      0.000560
     1.6175      0.000000
     1.6180      0.000000
     1.6185      0.000010
     1.6190      0.000040
     1.6195      0.000460
     1.6200      0.000120
     1.6205      0.000490
     1.6210      0.000000
     1.6215      0.000400
     1.6220      0.000370
     1.6225      0.000560
     1.6230      0.000900
     1.6235      0.000530
     1.6240      0.001090
     1.6245      0.000690
     1.6250      0.001060
     1.6255      0.000050
     1.6260      0.000570
     1.6265      0.000450
     1.6270      0.000820
     1.6275      0.000480
     1.6280      0.000540
     1.6285      0.000380
     1.6290      0.000470
     1.6295      0.001030
     1.6300      0.000970
     1.6305      0.000680
     1.6310      0.000370
     1.6315      0.000080
     1.6320      0.000000
     1.6325      0.000540
     1.6330      0.000000
     1.6335      0.000050
     1.6340      0.000020
     1.6345      0.000040
     1.6350      0.000340
     1.6355      0.000000
     1.6360      0.000840
     1.6365      0.000380
     1.6370      0.000370
     1.6375      0.000830
     1.6380      0.000860
     1.6385      0.000990
     1.6390      0.000360
     1.6395      0.000000
     1.6400      0.000320
     1.6405      0.000510
     1.6410      0.000580
     1.6415      0.000010
     1.6420      0.000160
     1.6425      0.000000
     1.6430      0.000040
     1.6435      0.000220
     1.6440      0.000370
     1.6445      0.001450
     1.6450      0.001270
     1.6455      0.000740
     1.6460      0.000650
     1.6465      0.000190
     1.6470      0.000040
     1.6475      0.000000
     1.6480      0.000030
     1.6485      0.000150
     1.6490      0.000090
     1.6495      0.001200
     1.6500      0.000400
     1.6505      0.001030
     1.6510      0.000000
     1.6515      0.000490
     1.6520      0.000240
     1.6525      0.000750
     1.6530      0.000860
     1.6535      0.000680
     1.6540      0.000500
     1.6545      0.000990
     1.6550      0.001640
     1.6555      0.000810
     1.6560      0.001050
     1.6565      0.000330
     1.6570      0.000080
     1.6575      0.000810
     1.6580      0.001440
     1.6585      0.001120
     1.6590      0.001670
     1.6595      0.001400
     1.6600      0.001980
     1.6605      0.001930
     1.6610      0.002160
     1.6615      0.001890
     1.6620      0.001680
     1.6625      0.002070
     1.6630      0.001770
     1.6635      0.002060
     1.6640      0.002260
     1.6645      0.002560
     1.6650      0.001490
     1.6655      0.001470
     1.6660      0.001440
     1.6665      0.001740
     1.6670      0.001480
     1.6675      0.001420
     1.6680      0.001640
     1.6685      0.001150
     1.6690      0.001670
     1.6695      0.001110
     1.6700      0.002070
     1.6705      0.001880
     1.6710      0.001800
     1.6715      0.002210
     1.6720      0.002620
     1.6725      0.002750
     1.6730      0.003080
     1.6735      0.002440
     1.6740      0.001930
     1.6745      0.001840
     1.6750      0.001960
     1.6755      0.001410
     1.6760      0.002330
     1.6765      0.002070
     1.6770      0.001540
     1.6775      0.001660
     1.6780      0.001270
     1.6785      0.001660
     1.6790      0.000580
     1.6795      0.000940
     1.6800      0.001470
     1.6805      0.002200
     1.6810      0.001260
     1.6815      0.001040
     1.6820      0.002060
     1.6825      0.001480
     1.6830      0.002320
     1.6835      0.002140
     1.6840      0.001530
     1.6845      0.001470
     1.6850      0.001370
     1.6855      0.001700
     1.6860      0.002180
     1.6865      0.001790
     1.6870      0.001630
     1.6875      0.001370
     1.6880      0.000940
     1.6885      0.001060
     1.6890      0.002120
     1.6895      0.001280
     1.6900      0.001000
     1.6905      0.001880
     1.6910      0.001470
     1.6915      0.001650
     1.6920      0.001800
     1.6925      0.001690
     1.6930      0.001450
     1.6935      0.001790
     1.6940      0.002710
     1.6945      0.001660
     1.6950      0.001610
     1.6955      0.001690
     1.6960      0.002120
     1.6965      0.002450
     1.6970      0.002430
     1.6975      0.002180
     1.6980      0.001520
     1.6985      0.001460
     1.6990      0.001860
     1.6995      0.001910
     1.7000      0.001240
     1.7005      0.002150
     1.7010      0.002520
     1.7015      0.001670
     1.7020      0.001340
     1.7025      0.001790
     1.7030      0.002620
     1.7035      0.002550
     1.7040      0.001780
     1.7045      0.001780
     1.7050      0.001920
     1.7055      0.001920
     1.7060      0.001420
     1.7065      0.001860
     1.7070      0.001760
     1.7075      0.001720
     1.7080      0.002060
     1.7085      0.001910
     1.7090      0.001880
     1.7095      0.001490
     1.7100      0.001650
     1.7105      0.001760
     1.7110      0.001550
     1.7115      0.001680
     1.7120      0.002300
     1.7125      0.002230
     1.7130      0.003010
     1.7135      0.002470
     1.7140      0.002160
     1.7145      0.002270
     1.7150      0.001880
     1.7155      0.001120
     1.7160      0.000960
     1.7165      0.001490
     1.7170      0.002270
     1.7175      0.002490
     1.7180      0.002040
     1.7185      0.001950
     1.7190      0.001980
     1.7195      0.002070
     1.7200      0.002820
     1.7205      0.002070
     1.7210      0.000820
     1.7215      0.001590
     1.7220      0.002260
     1.7225      0.002310
     1.7230      0.001450
     1.7235      0.001530
     1.7240      0.002170
     1.7245      0.001660
     1.7250      0.001420
     1.7255      0.001780
     1.7260      0.001190
     1.7265      0.001550
     1.7270      0.001810
     1.7275      0.001590
     1.7280      0.000990
     1.7285      0.001140
     1.7290      0.001500
     1.7295      0.001980
     1.7300      0.002000
     1.7305      0.002320
     1.7310      0.002350
     1.7315      0.002140
     1.7320      0.001380
     1.7325      0.001890
     1.7330      0.001550
     1.7335      0.001770
     1.7340      0.002230
     1.7345      0.001780
     1.7350      0.001570
     1.7355      0.001390
     1.7360      0.001490
     1.7365      0.001800
     1.7370      0.001710
     1.7375      0.000810
     1.7380      0.001260
     1.7385      0.002050
     1.7390      0.002050
     1.7395      0.002470
     1.7400      0.002630
     1.7405      0.001410
     1.7410      0.001680
     1.7415      0.002060
     1.7420      0.002020
     1.7425      0.001650
     1.7430      0.001900
     1.7435      0.001870
     1.7440      0.001560
     1.7445      0.001050
     1.7450      0.001240
     1.7455      0.001240
     1.7460      0.001860
     1.7465      0.001850
     1.7470      0.002070
     1.7475      0.000770
     1.7480      0.001430
     1.7485      0.000910
     1.7490      0.000150
     1.7495      0.001860
     1.7500      0.000300
     1.7505      0.000740
     1.7510      0.001400
     1.7515      0.001440
     1.7520      0.000470
     1.7525      0.000000
     1.7530      0.000000
     1.7535      0.000580
     1.7540      0.002000
     1.7545      0.001320
     1.7550      0.000340
     1.7555      0.000000
     1.7560      0.000000
     1.7565      0.000000
     1.7570      0.000230
     1.7575      0.000340
     1.7580      0.001280
     1.7585      0.000690
     1.7590      0.000060
     1.7595      0.000410
     1.7600      0.000920
     1.7605      0.000270
     1.7610      0.000190
     1.7615      0.000450
     1.7620      0.000160
     1.7625      0.000360
     1.7630      0.000440
     1.7635      0.000410
     1.7640      0.000600
     1.7645      0.000240
     1.7650      0.000110
     1.7655      0.000560
     1.7660      0.000000
     1.7665      0.000000
     1.7670      0.000000
     1.7675      0.000000
     1.7680      0.000340
     1.7685      0.000210
     1.7690      0.000340
     1.7695      0.000000
     1.7700      0.000000
     1.7705      0.000000
     1.7710      0.000000
     1.7715      0.000000
     1.7720      0.000000
     1.7725      0.000200
     1.7730      0.000940
     1.7735      0.000830
     1.7740      0.000450
     1.7745      0.000600
     1.7750      0.000030
     1.7755      0.000000
     1.7760      0.000150
     1.7765      0.000190
     1.7770      0.000390
     1.7775      0.000700
     1.7780      0.000040
     1.7785      0.000050
     1.7790      0.000120
     1.7795      0.001020
     1.7800      0.000540
     1.7805      0.000390
     1.7810      0.000680
     1.7815      0.000780
     1.7820      0.000870
     1.7825      0.000260
     1.7830      0.000280
     1.7835      0.000050
     1.7840      0.000510
     1.7845      0.000150
     1.7850      0.000320
     1.7855      0.000080
     1.7860      0.000000
     1.7865      0.000100
     1.7870      0.000530
     1.7875      0.000830
     1.7880      0.000920
     1.7885      0.001080
     1.7890      0.000300
     1.7895      0.000010
     1.7900      0.000000
     1.7905      0.000000
     1.7910      0.000320
     1.7915      0.000000
     1.7920      0.000280
     1.7925      0.000240
     1.7930      0.000410
     1.7935      0.000610
     1.7940      0.000530
     1.7945      0.000290
     1.7950      0.000620
     1.7955      0.000150
     1.7960      0.000000
     1.7965      0.000000
     1.7970      0.000000
     1.7975      0.000360
     1.7980      0.000000
     1.7985      0.000270
     1.7990      0.000530
     1.7995      0.000190
     1.8000      0.000220
     1.8005      0.000610
     1.8010      0.000420
     1.8015      0.000730
     1.8020      0.000250
     1.8025      0.000220
     1.8030      0.000470
     1.8035      0.000160
     1.8040      0.000040
     1.8045      0.000730
     1.8050      0.000190
     1.8055      0.000000
     1.8060      0.000260
     1.8065      0.000770
     1.8070      0.000200
     1.8075      0.000030
     1.8080      0.000000
     1.8085      0.000000
     1.8090      0.000180
     1.8095      0.000650
     1.8100      0.000230
     1.8105      0.000250
     1.8110      0.000180
     1.8115      0.000000
     1.8120      0.000780
     1.8125      0.000930
     1.8130      0.000250
     1.8135      0.000010
     1.8140      0.000000
     1.8145      0.000150
     1.8150      0.000430
     1.8155      0.000400
     1.8160      0.000420
     1.8165      0.000480
     1.8170      0.000550
     1.8175      0.000710
     1.8180      0.000050
     1.8185      0.000000
     1.8190      0.000000
     1.8195      0.000460
     1.8200      0.000330
     1.8205      0.000040
     1.8210      0.000280
     1.8215      0.000900
     1.8220      0.000920
     1.8225      0.000250
     1.8230      0.000390
     1.8235      0.000220
     1.8240      0.000070
     1.8245      0.000650
     1.8250      0.000370
     1.8255      0.000030
     1.8260      0.000320
     1.8265      0.000010
     1.8270      0.000180
     1.8275      0.000480
     1.8280      0.000000
     1.8285      0.000080
     1.8290      0.000110
     1.8295      0.000120
     1.8300      0.000010
     1.8305      0.000000
     1.8310      0.000350
     1.8315      0.000690
     1.8320      0.000550
     1.8325      0.000390
     1.8330      0.000430
     1.8335      0.000320
     1.8340      0.000740
     1.8345      0.000120
     1.8350      0.000180
     1.8355      0.000810
     1.8360      0.000290
     1.8365      0.000360
     1.8370      0.000760
     1.8375      0.000360
     1.8380      0.000400
     1.8385      0.000310
     1.8390      0.000060
     1.8395      0.000950
     1.8400      0.000960
     1.8405      0.000800
     1.8410      0.000600
     1.8415      0.000940
     1.8420      0.001090
     1.8425      0.000000
     1.8430      0.000000
     1.8435      0.000590
     1.8440      0.000990
     1.8445      0.000480
     1.8450      0.000020
     1.8455      0.000000
     1.8460      0.000460
     1.8465      0.000880
     1.8470      0.000570
     1.8475      0.000100
     1.8480      0.000050
     1.8485      0.000000
     1.8490      0.000000
     1.8495      0.000000
     1.8500      0.000010
     1.8505      0.000100
     1.8510      0.000400
     1.8515      0.001100
     1.8520      0.000520
     1.8525      0.000510
     1.8530      0.000050
     1.8535      0.000140
     1.8540      0.000010
     1.8545      0.000120
     1.8550      0.000470
     1.8555      0.000860
     1.8560      0.000470
     1.8565      0.000640
     1.8570      0.000770
     1.8575      0.000100
     1.8580      0.000070
     1.8585      0.000420
     1.8590      0.000190
     1.8595      0.000240
     1.8600      0.000000
     1.8605      0.000260
     1.8610      0.000660
     1.8615      0.000150
     1.8620      0.000270
     1.8625      0.000940
     1.8630      0.001530
     1.8635      0.001010
     1.8640      0.000650
     1.8645      0.000650
     1.8650      0.000510
     1.8655      0.000740
     1.8660      0.001150
     1.8665      0.001210
     1.8670      0.000290
     1.8675      0.000140
     1.8680      0.000310
     1.8685      0.000400
     1.8690      0.000440
     1.8695      0.000450
     1.8700      0.000150
     1.8705      0.000210
     1.8710      0.000160
     1.8715      0.000160
     1.8720      0.000040
     1.8725      0.000000
     1.8730      0.000410
     1.8735      0.000020
     1.8740      0.000600
     1.8745      0.000740
     1.8750      0.001150
     1.8755      0.000400
     1.8760      0.000000
     1.8765      0.000400
     1.8770      0.001220
     1.8775      0.000910
     1.8780      0.000070
     1.8785      0.000220
     1.8790      0.000100
     1.8795      0.000200
     1.8800      0.000810
     1.8805      0.000600
     1.8810      0.000650
     1.8815      0.000390
     1.8820      0.000050
     1.8825      0.000020
     1.8830      0.000050
     1.8835      0.000180
     1.8840      0.000090
     1.8845      0.000590
     1.8850      0.000050
     1.8855      0.000000
     1.8860      0.000500
     1.8865      0.000430
     1.8870      0.000000
     1.8875      0.000000
     1.8880      0.000200
     1.8885      0.000570
     1.8890      0.001270
     1.8895      0.001250
     1.8900      0.000340
     1.8905      0.000650
     1.8910      0.000650
     1.8915      0.000600
     1.8920      0.000990
     1.8925      0.001000
     1.8930      0.000430
     1.8935      0.000310
     1.8940      0.000350
     1.8945      0.000430
     1.8950      0.000940
     1.8955      0.000630
     1.8960      0.000020
     1.8965      0.000690
     1.8970      0.001060
     1.8975      0.000180
     1.8980      0.000000
     1.8985      0.000160
     1.8990      0.000050
     1.8995      0.000020
     1.9000      0.000280
     1.9005      0.000170
     1.9010      0.000020
     1.9015      0.000000
     1.9020      0.000030
     1.9025      0.000100
     1.9030      0.000000
     1.9035      0.000000
     1.9040      0.000000
     1.9045      0.000000
     1.9050      0.000790
     1.9055      0.000600
     1.9060      0.000530
     1.9065      0.000420
     1.9070      0.000440
     1.9075      0.000120
     1.9080      0.000120
     1.9085      0.000680
     1.9090      0.000420
     1.9095      0.000490
     1.9100      0.000560
     1.9105      0.000460
     1.9110      0.000410
     1.9115      0.000000
     1.9120      0.000000
     1.9125      0.000000
     1.9130      0.000090
     1.9135      0.000020
     1.9140      0.000510
     1.9145      0.000710
     1.9150      0.000520
     1.9155      0.000190
     1.9160      0.000310
     1.9165      0.000230
     1.9170      0.000260
     1.9175      0.000680
     1.9180      0.000330
     1.9185      0.000000
     1.9190      0.000120
     1.9195      0.000780
     1.9200      0.000440
     1.9205      0.000000
     1.9210      0.000000
     1.9215      0.000180
     1.9220      0.000980
     1.9225      0.000600
     1.9230      0.000040
     1.9235      0.000000
     1.9240      0.000000
     1.9245      0.000000
     1.9250      0.000010
     1.9255      0.000200
     1.9260      0.000440
     1.9265      0.000330
     1.9270      0.000000
     1.9275      0.000020
     1.9280      0.000330
     1.9285      0.000100
     1.9290      0.000000
     1.9295      0.000000
     1.9300      0.000000
     1.9305      0.000070
     1.9310      0.000040
     1.9315      0.000250
     1.9320      0.000420
     1.9325      0.000610
     1.9330      0.000610
     1.9335      0.000510
     1.9340      0.000670
     1.9345      0.000770
     1.9350      0.000390
     1.9355      0.000000
     1.9360      0.000000
     1.9365      0.000230
     1.9370      0.000280
     1.9375      0.000300
     1.9380      0.000140
     1.9385      0.000000
     1.9390      0.000130
     1.9395      0.000000
     1.9400      0.000000
     1.9405      0.000000
     1.9410      0.000000
     1.9415      0.000070
     1.9420      0.000210
     1.9425      0.000000
     1.9430      0.000000
     1.9435      0.000150
     1.9440      0.000000
     1.9445      0.000040
     1.9450      0.000130
     1.9455      0.000000
     1.9460      0.000000
     1.9465      0.000340
     1.9470      0.000360
     1.9475      0.000040
     1.9480      0.000060
     1.9485      0.000010
     1.9490      0.000360
     1.9495      0.000300
     1.9500      0.000100
     1.9505      0.000010
     1.9510      0.000000
     1.9515      0.000010
     1.9520      0.000000
     1.9525      0.000000
     1.9530      0.000300
     1.9535      0.000100
     1.9540      0.000000
     1.9545      0.000000
     1.9550      0.000120
     1.9555      0.000750
     1.9560      0.000690
     1.9565      0.000370
     1.9570      0.000120
     1.9575      0.000000
     1.9580      0.000350
     1.9585      0.000180
     1.9590      0.000010
     1.9595      0.000000
     1.9600      0.000000
     1.9605      0.000000
     1.9610      0.000030
     1.9615      0.000000
     1.9620      0.000010
     1.9625      0.000280
     1.9630      0.000260
     1.9635      0.000450
     1.9640      0.000860
     1.9645      0.000530
     1.9650      0.000000
     1.9655      0.000000
     1.9660      0.000000
     1.9665      0.000000
     1.9670      0.000000
     1.9675      0.000000
     1.9680      0.000060
     1.9685      0.000560
     1.9690      0.000340
     1.9695      0.000000
     1.9700      0.000000
     1.9705      0.000130
     1.9710      0.000190
     1.9715      0.000520
     1.9720      0.000210
     1.9725      0.000430
     1.9730      0.000100
     1.9735      0.000010
     1.9740      0.000190
     1.9745      0.000000
     1.9750      0.000000
     1.9755      0.000950
     1.9760      0.000660
     1.9765      0.000040
     1.9770      0.000170
     1.9775      0.000310
     1.9780      0.000230
     1.9785      0.000550
     1.9790      0.000310
     1.9795      0.000440
     1.9800      0.000470
     1.9805      0.000070
     1.9810      0.000140
     1.9815      0.000610
     1.9820      0.000160
     1.9825      0.000000
     1.9830      0.000000
     1.9835      0.000000
     1.9840      0.000000
     1.9845      0.000000
     1.9850      0.000000
     1.9855      0.000000
     1.9860      0.000000
     1.9865      0.000000
     1.9870      0.000000
     1.9875      0.000000
     1.9880      0.000030
     1.9885      0.000240
     1.9890      0.000290
     1.9895      0.000140
     1.9900      0.000380
     1.9905      0.000480
     1.9910      0.000000
     1.9915      0.000000
     1.9920      0.000000
     1.9925      0.000000
     1.9930      0.000120
     1.9935      0.000440
     1.9940      0.000280
     1.9945      0.000000
     1.9950      0.000000
     1.9955      0.000000
     1.9960      0.000340
     1.9965      0.000180
     1.9970      0.000000
     1.9975      0.000000
     1.9980      0.000000
     1.9985      0.000000
     1.9990      0.000110
     1.9995      0.000000
     2.0000      0.000140
     2.0005      0.000070
     2.0010      0.000020
     2.0015      0.000430
     2.0020      0.000180
     2.0025      0.000000
     2.0030      0.000300
     2.0035      0.000070
     2.0040      0.000000
     2.0045      0.000100
     2.0050      0.000000
     2.0055      0.000230
     2.0060      0.000340
     2.0065      0.000000
     2.0070      0.000000
     2.0075      0.000000
     2.0080      0.000500
     2.0085      0.000830
     2.0090      0.000880
     2.0095      0.000810
     2.0100      0.000940
     2.0105      0.000640
     2.0110      0.000600
     2.0115      0.000890
     2.0120      0.001120
     2.0125      0.000710
     2.0130      0.000640
     2.0135      0.000350
     2.0140      0.000340
     2.0145      0.000310
     2.0150      0.000010
     2.0155      0.000310
     2.0160      0.000790
     2.0165      0.000490
     2.0170      0.000570
     2.0175      0.000300
     2.0180      0.000000
     2.0185      0.000000
     2.0190      0.000000
     2.0195      0.000220
     2.0200      0.000500
     2.0205      0.000820
     2.0210      0.000770
     2.0215      0.000440
     2.0220      0.000490
     2.0225      0.000260
     2.0230      0.000220
     2.0235      0.000000
     2.0240      0.000000
     2.0245      0.000700
     2.0250      0.000470
     2.0255      0.000460
     2.0260      0.000540
     2.0265      0.000080
     2.0270      0.000160
     2.0275      0.000130
     2.0280      0.000000
     2.0285      0.000090
     2.0290      0.000440
     2.0295      0.000540
     2.0300      0.000330
     2.0305      0.000360
     2.0310      0.000500
     2.0315      0.000720
     2.0320      0.000880
     2.0325      0.000320
     2.0330      0.000000
     2.0335      0.000090
     2.0340      0.000560
     2.0345      0.000770
     2.0350      0.000650
     2.0355      0.000370
     2.0360      0.000120
     2.0365      0.000000
     2.0370      0.000000
     2.0375      0.000130
     2.0380      0.000700
     2.0385      0.001040
     2.0390      0.000870
     2.0395      0.000090
     2.0400      0.000000
     2.0405      0.000170
     2.0410      0.000640
     2.0415      0.000650
     2.0420      0.000030
     2.0425      0.000000
     2.0430      0.000240
     2.0435      0.000550
     2.0440      0.000000
     2.0445      0.000010
     2.0450      0.000230
     2.0455      0.000200
     2.0460      0.000000
     2.0465      0.000000
     2.0470      0.000000
     2.0475      0.000000
     2.0480      0.000070
     2.0485      0.000000
     2.0490      0.000000
     2.0495      0.000000
     2.0500      0.000000
     2.0505      0.000000
     2.0510      0.000000
     2.0515      0.000230
     2.0520      0.000570
     2.0525      0.000340
     2.0530      0.000190
     2.0535      0.000300
     2.0540      0.000910
     2.0545      0.001160
     2.0550      0.000510
     2.0555      0.000460
     2.0560      0.000590
     2.0565      0.000430
     2.0570      0.000270
     2.0575      0.000060
     2.0580      0.000000
     2.0585      0.000000
     2.0590      0.000000
     2.0595      0.000000
     2.0600      0.000000
     2.0605      0.000000
     2.0610      0.000000
     2.0615      0.000000
     2.0620      0.000000
     2.0625      0.000000
     2.0630      0.000000
     2.0635      0.000000
     2.0640      0.000000
     2.0645      0.000030
     2.0650      0.000200
     2.0655      0.000730
     2.0660      0.001040
     2.0665      0.000680
     2.0670      0.000430
     2.0675      0.000070
     2.0680      0.000000
     2.0685      0.000300
     2.0690      0.000590
     2.0695      0.000790
     2.0700      0.000560
     2.0705      0.000070
     2.0710      0.000000
     2.0715      0.000000
     2.0720      0.000000
     2.0725      0.000000
     2.0730      0.000010
     2.0735      0.000470
     2.0740      0.000850
     2.0745      0.000520
     2.0750      0.000050
     2.0755      0.000180
     2.0760      0.000050
     2.0765      0.000000
     2.0770      0.000000
     2.0775      0.000000
     2.0780      0.000000
     2.0785      0.000000
     2.0790      0.000000
     2.0795      0.000340
     2.0800      0.000440
     2.0805      0.000000
     2.0810      0.000020
     2.0815      0.000090
     2.0820      0.000150
     2.0825      0.000130
     2.0830      0.000000
     2.0835      0.000000
     2.0840      0.000000
     2.0845      0.000000
     2.0850      0.000000
     2.0855      0.000000
     2.0860      0.000000
     2.0865      0.000000
     2.0870      0.000140
     2.0875      0.000280
     2.0880      0.000010
     2.0885      0.000030
     2.0890      0.000130
     2.0895      0.000000
     2.0900      0.000000
     2.0905      0.000000
     2.0910      0.000220
     2.0915      0.000080
     2.0920      0.000000
     2.0925      0.000000
     2.0930      0.000000
     2.0935      0.000280
     2.0940      0.000250
     2.0945      0.000270
     2.0950      0.000650
     2.0955      0.000800
     2.0960      0.000550
     2.0965      0.000080
     2.0970      0.000000
     2.0975      0.000030
     2.0980      0.000290
     2.0985      0.000150
     2.0990      0.000000
     2.0995      0.000000
     2.1000      0.000000
     2.1005      0.000030
     2.1010      0.000100
     2.1015      0.000020
     2.1020      0.000000
     2.1025      0.000090
     2.1030      0.000480
     2.1035      0.000610
     2.1040      0.000700
     2.1045      0.000650
     2.1050      0.000000
     2.1055      0.000000
     2.1060      0.000000
     2.1065      0.000000
     2.1070      0.000000
     2.1075      0.000000
     2.1080      0.000000
     2.1085      0.000000
     2.1090      0.000000
     2.1095      0.000040
     2.1100      0.000060
     2.1105      0.000110
     2.1110      0.000320
     2.1115      0.000270
     2.1120      0.000000
     2.1125      0.000020
     2.1130      0.000540
     2.1135      0.000740
     2.1140      0.000320
     2.1145      0.000010
     2.1150      0.000180
     2.1155      0.000340
     2.1160      0.000320
     2.1165      0.000420
     2.1170      0.000000
     2.1175      0.000000
     2.1180      0.000000
     2.1185      0.000000
     2.1190      0.000000
     2.1195      0.000000
     2.1200      0.000000
     2.1205      0.000000
     2.1210      0.000000
     2.1215      0.000000
     2.1220      0.000150
     2.1225      0.000380
     2.1230      0.000370
     2.1235      0.000160
     2.1240      0.000000
     2.1245      0.000030
     2.1250      0.000060
     2.1255      0.000000
     2.1260      0.000000
     2.1265      0.000000
     2.1270      0.000140
     2.1275      0.000050
     2.1280      0.000240
     2.1285      0.000610
     2.1290      0.000380
     2.1295      0.000050
     2.1300      0.000000
     2.1305      0.000000
     2.1310      0.000000
     2.1315      0.000000
     2.1320      0.000000
     2.1325      0.000000
     2.1330      0.000000
     2.1335      0.000000
     2.1340      0.000000
     2.1345      0.000340
     2.1350      0.000210
     2.1355      0.000000
     2.1360      0.000000
     2.1365      0.000000
     2.1370      0.000040
     2.1375      0.000030
     2.1380      0.000150
     2.1385      0.000230
     2.1390      0.000210
     2.1395      0.000140
     2.1400      0.000420
     2.1405      0.000280
     2.1410      0.000020
     2.1415      0.000000
     2.1420      0.000020
     2.1425      0.000170
     2.1430      0.000250
     2.1435      0.000250
     2.1440      0.000170
     2.1445      0.000030
     2.1450      0.000000
     2.1455      0.000020
     2.1460      0.000330
     2.1465      0.000190
     2.1470      0.000140
     2.1475      0.000260
     2.1480      0.000070
     2.1485      0.000000
     2.1490      0.000000
     2.1495      0.000000
     2.1500      0.000020
     2.1505      0.000000
     2.1510      0.000000
     2.1515      0.000000
     2.1520      0.000080
     2.1525      0.000060
     2.1530      0.000070
     2.1535      0.000010
     2.1540      0.000000
     2.1545      0.000000
     2.1550      0.000060
     2.1555      0.000090
     2.1560      0.000000
     2.1565      0.000000
     2.1570      0.000000
     2.1575      0.000000
     2.1580      0.000000
     2.1585      0.000000
     2.1590      0.000000
     2.1595      0.000110
     2.1600      0.000310
     2.1605      0.000220
     2.1610      0.000310
     2.1615      0.000280
     2.1620      0.000020
     2.1625      0.000000
     2.1630      0.000000
     2.1635      0.000000
     2.1640      0.000000
     2.1645      0.000000
     2.1650      0.000000
     2.1655      0.000000
     2.1660      0.000000
     2.1665      0.000000
     2.1670      0.000010
     2.1675      0.000580
     2.1680      0.000300
     2.1685      0.000000
     2.1690      0.000160
     2.1695      0.000340
     2.1700      0.000130
     2.1705      0.000030
     2.1710      0.000100
     2.1715      0.000010
     2.1720      0.000000
     2.1725      0.000010
     2.1730      0.000080
     2.1735      0.000000
     2.1740      0.000050
     2.1745      0.000080
     2.1750      0.000030
     2.1755      0.000000
     2.1760      0.000050
     2.1765      0.000010
     2.1770      0.000000
     2.1775      0.000000
     2.1780      0.000000
     2.1785      0.000000
     2.1790      0.000000
     2.1795      0.000130
     2.1800      0.000210
     2.1805      0.000200
     2.1810      0.000100
     2.1815      0.000010
     2.1820      0.000000
     2.1825      0.000000
     2.1830      0.000000
     2.1835      0.000000
     2.1840      0.000000
     2.1845      0.000000
     2.1850      0.000000
     2.1855      0.000150
     2.1860      0.000230
     2.1865      0.000300
     2.1870      0.000530
     2.1875      0.000090
     2.1880      0.000000
     2.1885      0.000000
     2.1890      0.000000
     2.1895      0.000100
     2.1900      0.000270
     2.1905      0.000000
     2.1910      0.000000
     2.1915      0.000000
     2.1920      0.000110
     2.1925      0.000280
     2.1930      0.000080
     2.1935      0.000020
     2.1940      0.000000
     2.1945      0.000000
     2.1950      0.000010
     2.1955      0.000130
     2.1960      0.000000
     2.1965      0.000040
     2.1970      0.000090
     2.1975      0.000000
     2.1980      0.000000
     2.1985      0.000150
     2.1990      0.000400
     2.1995      0.000200
     2.2000      0.000240
     2.2005      0.000640
     2.2010      0.000050
     2.2015      0.000000
     2.2020      0.000000
     2.2025      0.000000
     2.2030      0.000060
     2.2035      0.000330
     2.2040      0.000810
     2.2045      0.000510
     2.2050      0.000020
     2.2055      0.000000
     2.2060      0.000000
     2.2065      0.000000
     2.2070      0.000130
     2.2075      0.000380
     2.2080      0.000650
     2.2085      0.000450
     2.2090      0.000120
     2.2095      0.000270
     2.2100      0.000170
     2.2105      0.000000
     2.2110      0.000020
     2.2115      0.000140
     2.2120      0.000170
     2.2125      0.000060
     2.2130      0.000070
     2.2135      0.000100
     2.2140      0.000040
     2.2145      0.000000
     2.2150      0.000130
     2.2155      0.000260
     2.2160      0.000230
     2.2165      0.000120
     2.2170      0.000010
     2.2175      0.000000
     2.2180      0.000430
     2.2185      0.000190
     2.2190      0.000000
     2.2195      0.000000
     2.2200      0.000000
     2.2205      0.000000
     2.2210      0.000000
     2.2215      0.000150
     2.2220      0.000350
     2.2225      0.000470
     2.2230      0.000510
     2.2235      0.000170
     2.2240      0.000000
     2.2245      0.000000
     2.2250      0.000000
     2.2255      0.000400
     2.2260      0.000500
     2.2265      0.000060
     2.2270      0.000000
     2.2275      0.000000
     2.2280      0.000000
     2.2285      0.000000
     2.2290      0.000000
     2.2295      0.000000
     2.2300      0.000000
     2.2305      0.000040
     2.2310      0.000120
     2.2315      0.000000
     2.2320      0.000000
     2.2325      0.000000
     2.2330      0.000080
     2.2335      0.000520
     2.2340      0.000870
     2.2345      0.000450
     2.2350      0.000050
     2.2355      0.000000
     2.2360      0.000000
     2.2365      0.000130
     2.2370      0.000550
     2.2375      0.000290
     2.2380      0.000030
     2.2385      0.000000
     2.2390      0.000000
     2.2395      0.000090
     2.2400      0.000010
     2.2405      0.000000
     2.2410      0.000000
     2.2415      0.000000
     2.2420      0.000000
     2.2425      0.000000
     2.2430      0.000000
     2.2435      0.000000
     2.2440      0.000000
     2.2445      0.000000
     2.2450      0.000000
     2.2455      0.000000
     2.2460      0.000040
     2.2465      0.000080
     2.2470      0.000000
     2.2475      0.000000
     2.2480      0.000110
     2.2485      0.000150
     2.2490      0.000000
     2.2495      0.000040
     2.2500      0.000040
     2.2505      0.000000
     2.2510      0.000230
     2.2515      0.000370
     2.2520      0.000340
     2.2525      0.000460
     2.2530      0.000390
     2.2535      0.000220
     2.2540      0.000340
     2.2545      0.000200
     2.2550      0.000030
     2.2555      0.000000
     2.2560      0.000580
     2.2565      0.001150
     2.2570      0.000970
     2.2575      0.000150
     2.2580      0.000000
     2.2585      0.000000
     2.2590      0.000180
     2.2595      0.000170
     2.2600      0.000010
     2.2605      0.000000
     2.2610      0.000000
     2.2615      0.000000
     2.2620      0.000000
     2.2625      0.000000
     2.2630      0.000190
     2.2635      0.000430
     2.2640      0.000470
     2.2645      0.000150
     2.2650      0.000000
     2.2655      0.000000
     2.2660      0.000000
     2.2665      0.000000
     2.2670      0.000030
     2.2675      0.000360
     2.2680      0.000490
     2.2685      0.000440
     2.2690      0.000420
     2.2695      0.000000
     2.2700      0.000000
     2.2705      0.000010
     2.2710      0.000110
     2.2715      0.000230
     2.2720      0.000000
     2.2725      0.000000
     2.2730      0.000000
     2.2735      0.000000
     2.2740      0.000000
     2.2745      0.000000
     2.2750      0.000000
     2.2755      0.000020
     2.2760      0.000140
     2.2765      0.000170
     2.2770      0.000000
     2.2775      0.000030
     2.2780      0.000220
     2.2785      0.000280
     2.2790      0.000000
     2.2795      0.000030
     2.2800      0.000170
     2.2805      0.000210
     2.2810      0.000110
     2.2815      0.000000
     2.2820      0.000030
     2.2825      0.000210
     2.2830      0.000190
     2.2835      0.000000
     2.2840      0.000020
     2.2845      0.000190
     2.2850      0.000430
     2.2855      0.000480
     2.2860      0.000290
     2.2865      0.000170
     2.2870      0.000170
     2.2875      0.000290
     2.2880      0.000410
     2.2885      0.000000
     2.2890      0.000010
     2.2895      0.000330
     2.2900      0.000490
     2.2905      0.000000
     2.2910      0.000000
     2.2915      0.000000
     2.2920      0.000000
     2.2925      0.000240
     2.2930      0.000470
     2.2935      0.000270
     2.2940      0.000070
     2.2945      0.000140
     2.2950      0.000420
     2.2955      0.000390
     2.2960      0.000100
     2.2965      0.000070
     2.2970      0.000270
     2.2975      0.000420
     2.2980      0.000260
     2.2985      0.000050
     2.2990      0.000300
     2.2995      0.000630
     2.3000      0.000610
     2.3005      0.000440
     2.3010      0.000280
     2.3015      0.000080
     2.3020      0.000000
     2.3025      0.000000
     2.3030      0.000000
     2.3035      0.000000
     2.3040      0.000490
     2.3045      0.000720
     2.3050      0.000260
     2.3055      0.000000
     2.3060      0.000300
     2.3065      0.000670
     2.3070      0.000500
     2.3075      0.000260
     2.3080      0.000490
     2.3085      0.000940
     2.3090      0.000870
     2.3095      0.000310
     2.3100      0.000000
     2.3105      0.000000
     2.3110      0.000000
     2.3115      0.000000
     2.3120      0.000000
     2.3125      0.000020
     2.3130      0.000220
     2.3135      0.000260
     2.3140      0.000010
     2.3145      0.000000
     2.3150      0.000000
     2.3155      0.000130
     2.3160      0.000210
     2.3165      0.000040
     2.3170      0.000000
     2.3175      0.000000
     2.3180      0.000000
     2.3185      0.000190
     2.3190      0.000160
     2.3195      0.000030
     2.3200      0.000000
     2.3205      0.000000
     2.3210      0.000110
     2.3215      0.000590
     2.3220      0.001010
     2.3225      0.000760
     2.3230      0.000250
     2.3235      0.000000
     2.3240      0.000100
     2.3245      0.000310
     2.3250      0.000000
     2.3255      0.000050
     2.3260      0.000360
     2.3265      0.000330
     2.3270      0.000000
     2.3275      0.000000
     2.3280      0.000120
     2.3285      0.000080
     2.3290      0.000010
     2.3295      0.000000
     2.3300      0.000000
     2.3305      0.000000
     2.3310      0.000010
     2.3315      0.000230
     2.3320      0.000390
     2.3325      0.000330
     2.3330      0.000130
     2.3335      0.000000
     2.3340      0.000030
     2.3345      0.000130
     2.3350      0.000160
     2.3355      0.000000
     2.3360      0.000000
     2.3365      0.000030
     2.3370      0.000320
     2.3375      0.001040
     2.3380      0.000430
     2.3385      0.000030
     2.3390      0.000000
     2.3395      0.000000
     2.3400      0.000000
     2.3405      0.000000
     2.3410      0.000000
     2.3415      0.000000
     2.3420      0.000000
     2.3425      0.000000
     2.3430      0.000000
     2.3435      0.000000
     2.3440      0.000000
     2.3445      0.000000
     2.3450      0.000030
     2.3455      0.000170
     2.3460      0.000290
     2.3465      0.000000
     2.3470      0.000000
     2.3475      0.000000
     2.3480      0.000350
     2.3485      0.000110
     2.3490      0.000010
     2.3495      0.000000
     2.3500      0.000000
     2.3505      0.000000
     2.3510      0.000000
     2.3515      0.000000
     2.3520      0.000000
     2.3525      0.000030
     2.3530      0.000120
     2.3535      0.000200
     2.3540      0.000150
     2.3545      0.000000
     2.3550      0.000000
     2.3555      0.000000
     2.3560      0.000000
     2.3565      0.000000
     2.3570      0.000000
     2.3575      0.000350
     2.3580      0.000630
     2.3585      0.000580
     2.3590      0.000610
     2.3595      0.000840
     2.3600      0.000810
     2.3605      0.000430
     2.3610      0.000090
     2.3615      0.000240
     2.3620      0.000800
     2.3625      0.000870
     2.3630      0.000700
     2.3635      0.000660
     2.3640      0.000650
     2.3645      0.000600
     2.3650      0.000320
     2.3655      0.000220
     2.3660      0.000500
     2.3665      0.000740
     2.3670      0.000580
     2.3675      0.000350
     2.3680      0.000260
     2.3685      0.000560
     2.3690      0.000870
     2.3695      0.000280
     2.3700      0.000030
     2.3705      0.000090
     2.3710      0.000030
     2.3715      0.000000
     2.3720      0.000000
     2.3725      0.000000
     2.3730      0.000000
     2.3735      0.000000
     2.3740      0.000000
     2.3745      0.000100
     2.3750      0.000660
     2.3755      0.000900
     2.3760      0.000680
     2.3765      0.000450
     2.3770      0.000100
     2.3775      0.000000
     2.3780      0.000040
     2.3785      0.000060
     2.3790      0.000030
     2.3795      0.000050
     2.3800      0.000110
     2.3805      0.000000
     2.3810      0.000000
     2.3815      0.000070
     2.3820      0.000220
     2.3825      0.000110
     2.3830      0.000020
     2.3835      0.000100
     2.3840      0.000280
     2.3845      0.000200
     2.3850      0.000000
     2.3855      0.000000
     2.3860      0.000000
     2.3865      0.000000
     2.3870      0.000000
     2.3875      0.000010
     2.3880      0.000020
     2.3885      0.000010
     2.3890      0.000000
     2.3895      0.000000
     2.3900      0.000000
     2.3905      0.000110
     2.3910      0.000210
     2.3915      0.000000
     2.3920      0.000000
     2.3925      0.000000
     2.3930      0.000000
     2.3935      0.000000
     2.3940      0.000000
     2.3945      0.000000
     2.3950      0.000000
     2.3955      0.000000
     2.3960      0.000010
     2.3965      0.000030
     2.3970      0.000020
     2.3975      0.000010
     2.3980      0.000100
     2.3985      0.000410
     2.3990      0.000490
     2.3995      0.000400
     2.4000      0.000350
     2.4005      0.000530
     2.4010      0.000860
     2.4015      0.000990
     2.4020      0.000510
     2.4025      0.000000
     2.4030      0.000000
     2.4035      0.000000
     2.4040      0.000000
     2.4045      0.000060
     2.4050      0.000050
     2.4055      0.000000
     2.4060      0.000000
     2.4065      0.000000
     2.4070      0.000000
     2.4075      0.000000
     2.4080      0.000000
     2.4085      0.000000
     2.4090      0.000000
     2.4095      0.000000
     2.4100      0.000000
     2.4105      0.000000
     2.4110      0.000000
     2.4115      0.000000
     2.4120      0.000000
     2.4125      0.000000
     2.4130      0.000000
     2.4135      0.000000
     2.4140      0.000000
     2.4145      0.000000
     2.4150      0.000000
     2.4155      0.000000
     2.4160      0.000000
     2.4165      0.000000
     2.4170      0.000000
     2.4175      0.000330
     2.4180      0.000250
     2.4185      0.000070
     2.4190      0.000000
     2.4195      0.000090
     2.4200      0.000260
     2.4205      0.000340
     2.4210      0.000200
     2.4215      0.000020
     2.4220      0.000000
     2.4225      0.000000
     2.4230      0.000000
     2.4235      0.000050
     2.4240      0.000200
     2.4245      0.000450
     2.4250      0.000650
     2.4255      0.000590
     2.4260      0.000370
     2.4265      0.000300
     2.4270      0.000110
     2.4275      0.000000
     2.4280      0.000000
     2.4285      0.000080
     2.4290      0.000300
     2.4295      0.000140
     2.4300      0.000020
     2.4305      0.000000
     2.4310      0.000000
     2.4315      0.000000
     2.4320      0.000130
     2.4325      0.000370
     2.4330      0.000420
     2.4335      0.000230
     2.4340      0.000020
     2.4345      0.000060
     2.4350      0.000520
     2.4355      0.000800
     2.4360      0.000770
     2.4365      0.000610
     2.4370      0.000460
     2.4375      0.000620
     2.4380      0.000720
     2.4385      0.000550
     2.4390      0.000510
     2.4395      0.000260
     2.4400      0.000000
     2.4405      0.000000
     2.4410      0.000000
     2.4415      0.000000
     2.4420      0.000000
     2.4425      0.000000
     2.4430      0.000100
     2.4435      0.000090
     2.4440      0.000000
     2.4445      0.000130
     2.4450      0.000630
     2.4455      0.000590
     2.4460      0.000360
     2.4465      0.000490
     2.4470      0.000530
     2.4475      0.000280
     2.4480      0.000000
     2.4485      0.000000
     2.4490      0.000000
     2.4495      0.000850
     2.4500      0.001220
     2.4505      0.001190
     2.4510      0.000990
     2.4515      0.000760
     2.4520      0.000490
     2.4525      0.000140
     2.4530      0.000010
     2.4535      0.000170
     2.4540      0.000350
     2.4545      0.000420
     2.4550      0.000520
     2.4555      0.000830
     2.4560      0.001050
     2.4565      0.000540
     2.4570      0.000210
     2.4575      0.000620
     2.4580      0.000950
     2.4585      0.000810
     2.4590      0.000520
     2.4595      0.000790
     2.4600      0.000790
     2.4605      0.000170
     2.4610      0.000000
     2.4615      0.000220
     2.4620      0.000560
     2.4625      0.000830
     2.4630      0.001070
     2.4635      0.001030
     2.4640      0.000700
     2.4645      0.000630
     2.4650      0.000610
     2.4655      0.000500
     2.4660      0.000400
     2.4665      0.000690
     2.4670      0.000720
     2.4675      0.000370
     2.4680      0.000250
     2.4685      0.000400
     2.4690      0.000560
     2.4695      0.000410
     2.4700      0.000000
     2.4705      0.000000
     2.4710      0.000470
     2.4715      0.000520
     2.4720      0.000230
     2.4725      0.000030
     2.4730      0.000140
     2.4735      0.000420
     2.4740      0.000630
     2.4745      0.000680
     2.4750      0.000570
     2.4755      0.000330
     2.4760      0.000070
     2.4765      0.000040
     2.4770      0.000340
     2.4775      0.000290
     2.4780      0.000140
     2.4785      0.000170
     2.4790      0.000380
     2.4795      0.000500
     2.4800      0.000360
     2.4805      0.000280
     2.4810      0.000310
     2.4815      0.000190
     2.4820      0.000010
     2.4825      0.000000
     2.4830      0.000000
     2.4835      0.000150
     2.4840      0.000340
     2.4845      0.000620
     2.4850      0.000880
     2.4855      0.000960
     2.4860      0.000710
     2.4865      0.000430
     2.4870      0.000520
     2.4875      0.000560
     2.4880      0.000340
     2.4885      0.000010
     2.4890      0.000030
     2.4895      0.000170
     2.4900      0.000180
     2.4905      0.000080
     2.4910      0.000000
     2.4915      0.000000
     2.4920      0.000010
     2.4925      0.000120
     2.4930      0.000040
     2.4935      0.000030
     2.4940      0.000220
     2.4945      0.000460
     2.4950      0.000460
     2.4955      0.000450
     2.4960      0.000120
     2.4965      0.000000
     2.4970      0.000110
     2.4975      0.000230
     2.4980      0.000000
     2.4985      0.000000
     2.4990      0.000000
     2.4995      0.000200
     2.5000      0.000560
     2.5005      0.000980
     2.5010      0.001380
     2.5015      0.001160
     2.5020      0.000820
     2.5025      0.000600
     2.5030      0.000420
     2.5035      0.000220
     2.5040      0.000280
     2.5045      0.000460
     2.5050      0.000540
     2.5055      0.000630
     2.5060      0.000590
     2.5065      0.000260
     2.5070      0.000030
     2.5075      0.000130
     2.5080      0.000100
     2.5085      0.000160
     2.5090      0.000300
     2.5095      0.000270
     2.5100      0.000030
     2.5105      0.000000
     2.5110      0.000070
     2.5115      0.000140
     2.5120      0.000130
     2.5125      0.000000
     2.5130      0.000100
     2.5135      0.000040
     2.5140      0.000000
     2.5145      0.000000
     2.5150      0.000000
     2.5155      0.000030
     2.5160      0.000320
     2.5165      0.000280
     2.5170      0.000110
     2.5175      0.000000
     2.5180      0.000010
     2.5185      0.000370
     2.5190      0.000750
     2.5195      0.000830
     2.5200      0.000670
     2.5205      0.000540
     2.5210      0.000840
     2.5215      0.000980
     2.5220      0.000740
     2.5225      0.000480
     2.5230      0.000520
     2.5235      0.000880
     2.5240      0.001270
     2.5245      0.001430
     2.5250      0.001130
     2.5255      0.000520
     2.5260      0.000000
     2.5265      0.000000
     2.5270      0.000040
     2.5275      0.000380
     2.5280      0.000700
     2.5285      0.000630
     2.5290      0.000340
     2.5295      0.000300
     2.5300      0.000310
     2.5305      0.000370
     2.5310      0.000470
     2.5315      0.000510
     2.5320      0.000390
     2.5325      0.000310
     2.5330      0.000160
     2.5335      0.000000
     2.5340      0.000000
     2.5345      0.000000
     2.5350      0.000000
     2.5355      0.000060
     2.5360      0.000140
     2.5365      0.000180
     2.5370      0.000480
     2.5375      0.000580
     2.5380      0.000380
     2.5385      0.000090
     2.5390      0.000000
     2.5395      0.000000
     2.5400      0.000000
     2.5405      0.000000
     2.5410      0.000110
     2.5415      0.000410
     2.5420      0.000740
     2.5425      0.000850
     2.5430      0.000740
     2.5435      0.000510
     2.5440      0.000260
     2.5445      0.000030
     2.5450      0.000000
     2.5455      0.000090
     2.5460      0.000320
     2.5465      0.000670
     2.5470      0.000800
     2.5475      0.000540
     2.5480      0.000390
     2.5485      0.000400
     2.5490      0.000460
     2.5495      0.000070
     2.5500      0.000010
     2.5505      0.000090
     2.5510      0.000180
     2.5515      0.000150
     2.5520      0.000170
     2.5525      0.000360
     2.5530      0.000450
     2.5535      0.000430
     2.5540      0.000390
     2.5545      0.000620
     2.5550      0.000840
     2.5555      0.000740
     2.5560      0.000440
     2.5565      0.000270
     2.5570      0.000770
     2.5575      0.000950
     2.5580      0.000760
     2.5585      0.000360
     2.5590      0.000140
     2.5595      0.000100
     2.5600      0.000040
     2.5605      0.000000
     2.5610      0.000000
     2.5615      0.000000
     2.5620      0.000560
     2.5625      0.000940
     2.5630      0.000960
     2.5635      0.000660
     2.5640      0.000630
     2.5645      0.000900
     2.5650      0.000930
     2.5655      0.000720
     2.5660      0.000440
     2.5665      0.000500
     2.5670      0.000550
     2.5675      0.000500
     2.5680      0.000330
     2.5685      0.000070
     2.5690      0.000030
     2.5695      0.000120
     2.5700      0.000130
     2.5705      0.000040
     2.5710      0.000290
     2.5715      0.000880
     2.5720      0.000920
     2.5725      0.000520
     2.5730      0.000000
     2.5735      0.000000
     2.5740      0.000140
     2.5745      0.000390
     2.5750      0.000670
     2.5755      0.000730
     2.5760      0.000800
     2.5765      0.000810
     2.5770      0.000690
     2.5775      0.000470
     2.5780      0.000600
     2.5785      0.000770
     2.5790      0.000750
     2.5795      0.000610
     2.5800      0.000580
     2.5805      0.000760
     2.5810      0.000830
     2.5815      0.000750
     2.5820      0.000530
     2.5825      0.000270
     2.5830      0.000090
     2.5835      0.000030
     2.5840      0.000050
     2.5845      0.000000
     2.5850      0.000000
     2.5855      0.000000
     2.5860      0.000150
     2.5865      0.000530
     2.5870      0.000940
     2.5875      0.000820
     2.5880      0.000430
     2.5885      0.000120
     2.5890      0.000530
     2.5895      0.001070
     2.5900      0.001140
     2.5905      0.001040
     2.5910      0.001160
     2.5915      0.001470
     2.5920      0.001430
     2.5925      0.001350
     2.5930      0.001380
     2.5935      0.001510
     2.5940      0.001260
     2.5945      0.000950
     2.5950      0.000690
     2.5955      0.000600
     2.5960      0.000590
     2.5965      0.000650
     2.5970      0.000650
     2.5975      0.000490
     2.5980      0.000230
     2.5985      0.000170
     2.5990      0.000200
     2.5995      0.000320
     2.6000      0.000750
     2.6005      0.000990
     2.6010      0.000920
     2.6015      0.000730
     2.6020      0.000890
     2.6025      0.000890
     2.6030      0.000860
     2.6035      0.000890
     2.6040      0.001040
     2.6045      0.000840
     2.6050      0.000800
     2.6055      0.000750
     2.6060      0.000570
     2.6065      0.000280
     2.6070      0.000380
     2.6075      0.000370
     2.6080      0.000160
     2.6085      0.000020
     2.6090      0.000230
     2.6095      0.000510
     2.6100      0.000730
     2.6105      0.000710
     2.6110      0.000790
     2.6115      0.000940
     2.6120      0.001150
     2.6125      0.001390
     2.6130      0.001380
     2.6135      0.001360
     2.6140      0.001410
     2.6145      0.001610
     2.6150      0.001420
     2.6155      0.001320
     2.6160      0.001380
     2.6165      0.001610
     2.6170      0.001460
     2.6175      0.001340
     2.6180      0.001390
     2.6185      0.001680
     2.6190      0.002070
     2.6195      0.002350
     2.6200      0.002420
     2.6205      0.002270
     2.6210      0.001990
     2.6215      0.001840
     2.6220      0.001780
     2.6225      0.001770
     2.6230      0.001870
     2.6235      0.002100
     2.6240      0.002200
     2.6245      0.002150
     2.6250      0.002170
     2.6255      0.002490
     2.6260      0.002620
     2.6265      0.002500
     2.6270      0.002260
     2.6275      0.002200
     2.6280      0.002170
     2.6285      0.002220
     2.6290      0.002660
     2.6295      0.002920
     2.6300      0.002680
     2.6305      0.002050
     2.6310      0.001700
     2.6315      0.001920
     2.6320      0.002170
     2.6325      0.002340
     2.6330      0.002530
     2.6335      0.002810
     2.6340      0.003040
     2.6345      0.003180
     2.6350      0.003310
     2.6355      0.003210
     2.6360      0.003100
     2.6365      0.003090
     2.6370      0.003290
     2.6375      0.003430
     2.6380      0.003620
     2.6385      0.003890
     2.6390      0.003970
     2.6395      0.003980
     2.6400      0.004090
     2.6405      0.004370
     2.6410      0.004420
     2.6415      0.004250
     2.6420      0.004060
     2.6425      0.003980
     2.6430      0.004210
     2.6435      0.004400
     2.6440      0.004550
     2.6445      0.004700
     2.6450      0.005470
     2.6455      0.005970
     2.6460      0.006070
     2.6465      0.005620
     2.6470      0.005660
     2.6475      0.005900
     2.6480      0.006250
     2.6485      0.006590
     2.6490      0.006980
     2.6495      0.007200
     2.6500      0.007250
     2.6505      0.007210
     2.6510      0.007240
     2.6515      0.007350
     2.6520      0.007590
     2.6525      0.008290
     2.6530      0.008740
     2.6535      0.008840
     2.6540      0.008560
     2.6545      0.008770
     2.6550      0.009360
     2.6555      0.009960
     2.6560      0.010250
     2.6565      0.010170
     2.6570      0.010290
     2.6575      0.010690
     2.6580      0.011570
     2.6585      0.012310
     2.6590      0.012670
     2.6595      0.012670
     2.6600      0.012490
     2.6605      0.012560
     2.6610      0.012930
     2.6615      0.013630
     2.6620      0.014480
     2.6625      0.015180
     2.6630      0.015660
     2.6635      0.015870
     2.6640      0.015940
     2.6645      0.016510
     2.6650      0.017450
     2.6655      0.018410
     2.6660      0.018800
     2.6665      0.019290
     2.6670      0.020030
     2.6675      0.020870
     2.6680      0.021390
     2.6685      0.021940
     2.6690      0.022760
     2.6695      0.023880
     2.6700      0.024660
     2.6705      0.025220
     2.6710      0.025720
     2.6715      0.026560
     2.6720      0.027480
     2.6725      0.028450
     2.6730      0.029640
     2.6735      0.030900
     2.6740      0.032170
     2.6745      0.033410
     2.6750      0.034750
     2.6755      0.035860
     2.6760      0.036790
     2.6765      0.037640
     2.6770      0.039010
     2.6775      0.040580
     2.6780      0.042220
     2.6785      0.043600
     2.6790      0.044960
     2.6795      0.046300
     2.6800      0.047610
     2.6805      0.048980
     2.6810      0.050630
     2.6815      0.052460
     2.6820      0.054050
     2.6825      0.055470
     2.6830      0.057130
     2.6835      0.059280
     2.6840      0.061230
     2.6845      0.062950
     2.6850      0.064590
     2.6855      0.066560
     2.6860      0.068470
     2.6865      0.070400
     2.6870      0.072360
     2.6875      0.074240
     2.6880      0.076190
     2.6885      0.078360
     2.6890      0.081070
     2.6895      0.083360
     2.6900      0.085210
     2.6905      0.086650
     2.6910      0.088410
     2.6915      0.090710
     2.6920      0.093340
     2.6925      0.096120
     2.6930      0.098430
     2.6935      0.100740
     2.6940      0.103130
     2.6945      0.105600
     2.6950      0.107670
     2.6955      0.109650
     2.6960      0.111870
     2.6965      0.114580
     2.6970      0.117110
     2.6975      0.119330
     2.6980      0.121600
     2.6985      0.124510
     2.6990      0.127590
     2.6995      0.130130
     2.7000      0.131720
     2.7005      0.133290
     2.7010      0.135080
     2.7015      0.137150
     2.7020      0.139540
     2.7025      0.142180
     2.7030      0.145030
     2.7035      0.147350
     2.7040      0.149520
     2.7045      0.151670
     2.7050      0.153720
     2.7055      0.155640
     2.7060      0.157620
     2.7065      0.160380
     2.7070      0.163460
     2.7075      0.166200
     2.7080      0.168070
     2.7085      0.169180
     2.7090      0.170500
     2.7095      0.172110
     2.7100      0.173880
     2.7105      0.175620
     2.7110      0.177490
     2.7115      0.179720
     2.7120      0.181860
     2.7125      0.183840
     2.7130      0.185600
     2.7135      0.187550
     2.7140      0.189640
     2.7145      0.191850
     2.7150      0.194060
     2.7155      0.196110
     2.7160      0.197980
     2.7165      0.199600
     2.7170      0.200940
     2.7175      0.202360
     2.7180      0.203950
     2.7185      0.206320
     2.7190      0.208690
     2.7195      0.210890
     2.7200      0.212420
     2.7205      0.213890
     2.7210      0.215400
     2.7215      0.217040
     2.7220      0.218450
     2.7225      0.219990
     2.7230      0.221740
     2.7235      0.223980
     2.7240      0.225920
     2.7245      0.227580
     2.7250      0.228750
     2.7255      0.230170
     2.7260      0.231780
     2.7265      0.233620
     2.7270      0.235180
     2.7275      0.236610
     2.7280      0.237950
     2.7285      0.239840
     2.7290      0.242010
     2.7295      0.244320
     2.7300      0.246250
     2.7305      0.248030
     2.7310      0.249790
     2.7315      0.251700
     2.7320      0.253420
     2.7325      0.255080
     2.7330      0.256700
     2.7335      0.258510
     2.7340      0.260430
     2.7345      0.262450
     2.7350      0.264350
     2.7355      0.266070
     2.7360      0.267740
     2.7365      0.269710
     2.7370      0.271600
     2.7375      0.273320
     2.7380      0.274720
     2.7385      0.276480
     2.7390      0.278490
     2.7395      0.280760
     2.7400      0.282520
     2.7405      0.283930
     2.7410      0.285060
     2.7415      0.286750
     2.7420      0.288710
     2.7425      0.290740
     2.7430      0.292190
     2.7435      0.293560
     2.7440      0.295020
     2.7445      0.296800
     2.7450      0.298550
     2.7455      0.300190
     2.7460      0.301620
     2.7465      0.303070
     2.7470      0.304630
     2.7475      0.306320
     2.7480      0.308040
     2.7485      0.309690
     2.7490      0.311250
     2.7495      0.312360
     2.7500      0.313490
     2.7505      0.314700
     2.7510      0.316230
     2.7515      0.317440
     2.7520      0.318570
     2.7525      0.319870
     2.7530      0.321570
     2.7535      0.323190
     2.7540      0.324380
     2.7545      0.325360
     2.7550      0.326410
     2.7555      0.327620
     2.7560      0.328600
     2.7565      0.329400
     2.7570      0.330000
     2.7575      0.330470
     2.7580      0.331110
     2.7585      0.331930
     2.7590      0.333190
     2.7595      0.334300
     2.7600      0.335270
     2.7605      0.335860
     2.7610      0.336660
     2.7615      0.337630
     2.7620      0.338810
     2.7625      0.339590
     2.7630      0.340090
     2.7635      0.340240
     2.7640      0.340600
     2.7645      0.341120
     2.7650      0.341880
     2.7655      0.342390
     2.7660      0.342700
     2.7665      0.342770
     2.7670      0.342710
     2.7675      0.342710
     2.7680      0.342870
     2.7685      0.343730
     2.7690      0.344330
     2.7695      0.344530
     2.7700      0.343560
     2.7705      0.343060
     2.7710      0.343130
     2.7715      0.343870
     2.7720      0.344200
     2.7725      0.344170
     2.7730      0.343980
     2.7735      0.343910
     2.7740      0.343960
     2.7745      0.344310
     2.7750      0.344520
     2.7755      0.344600
     2.7760      0.344260
     2.7765      0.343900
     2.7770      0.343500
     2.7775      0.342950
     2.7780      0.342760
     2.7785      0.342840
     2.7790      0.343170
     2.7795      0.342960
     2.7800      0.342430
     2.7805      0.341750
     2.7810      0.341050
     2.7815      0.340280
     2.7820      0.339340
     2.7825      0.338630
     2.7830      0.338110
     2.7835      0.337860
     2.7840      0.337730
     2.7845      0.337750
     2.7850      0.338140
     2.7855      0.338460
     2.7860      0.338540
     2.7865      0.337840
     2.7870      0.337210
     2.7875      0.336730
     2.7880      0.336720
     2.7885      0.336500
     2.7890      0.336160
     2.7895      0.335650
     2.7900      0.335110
     2.7905      0.334690
     2.7910      0.334740
     2.7915      0.335250
     2.7920      0.335840
     2.7925      0.336090
     2.7930      0.335750
     2.7935      0.335100
     2.7940      0.334150
     2.7945      0.333610
     2.7950      0.333340
     2.7955      0.333500
     2.7960      0.333520
     2.7965      0.333450
     2.7970      0.333250
     2.7975      0.332980
     2.7980      0.332680
     2.7985      0.332440
     2.7990      0.332200
     2.7995      0.331960
     2.8000      0.331760
     2.8005      0.331890
     2.8010      0.332210
     2.8015      0.332550
     2.8020      0.332740
     2.8025      0.332830
     2.8030      0.333050
     2.8035      0.333180
     2.8040      0.333240
     2.8045      0.333000
     2.8050      0.332860
     2.8055      0.332810
     2.8060      0.333130
     2.8065      0.333550
     2.8070      0.334070
     2.8075      0.334210
     2.8080      0.334130
     2.8085      0.333800
     2.8090      0.333910
     2.8095      0.334240
     2.8100      0.334840
     2.8105      0.335180
     2.8110      0.335450
     2.8115      0.335670
     2.8120      0.335950
     2.8125      0.336260
     2.8130      0.336640
     2.8135      0.337220
     2.8140      0.337820
     2.8145      0.338310
     2.8150      0.338660
     2.8155      0.338980
     2.8160      0.339360
     2.8165      0.339620
     2.8170      0.339890
     2.8175      0.340540
     2.8180      0.341530
     2.8185      0.342680
     2.8190      0.343440
     2.8195      0.344190
     2.8200      0.344930
     2.8205      0.345590
     2.8210      0.346100
     2.8215      0.346480
     2.8220      0.347550
     2.8225      0.348680
     2.8230      0.349870
     2.8235      0.350490
     2.8240      0.350920
     2.8245      0.351150
     2.8250      0.351250
     2.8255      0.351470
     2.8260      0.352030
     2.8265      0.352930
     2.8270      0.353990
     2.8275      0.355150
     2.8280      0.356550
     2.8285      0.358030
     2.8290      0.359180
     2.8295      0.360000
     2.8300      0.360570
     2.8305      0.361570
     2.8310      0.362640
     2.8315      0.363790
     2.8320      0.364370
     2.8325      0.364950
     2.8330      0.365610
     2.8335      0.366780
     2.8340      0.368060
     2.8345      0.369390
     2.8350      0.370570
     2.8355      0.371700
     2.8360      0.372770
     2.8365      0.373960
     2.8370      0.375240
     2.8375      0.376770
     2.8380      0.378120
     2.8385      0.379300
     2.8390      0.380090
     2.8395      0.381090
     2.8400      0.382390
     2.8405      0.384040
     2.8410      0.385540
     2.8415      0.386590
     2.8420      0.387390
     2.8425      0.388210
     2.8430      0.389440
     2.8435      0.390780
     2.8440      0.392190
     2.8445      0.393540
     2.8450      0.395050
     2.8455      0.396710
     2.8460      0.398490
     2.8465      0.400100
     2.8470      0.401460
     2.8475      0.402550
     2.8480      0.403590
     2.8485      0.404660
     2.8490      0.405930
     2.8495      0.407370
     2.8500      0.409300
     2.8505      0.411220
     2.8510      0.413150
     2.8515      0.414230
     2.8520      0.415270
     2.8525      0.416270
     2.8530      0.418100
     2.8535      0.420140
     2.8540      0.422370
     2.8545      0.424140
     2.8550      0.425700
     2.8555      0.427130
     2.8560      0.428800
     2.8565      0.430660
     2.8570      0.432380
     2.8575      0.433950
     2.8580      0.435310
     2.8585      0.436910
     2.8590      0.438570
     2.8595      0.440270
     2.8600      0.441860
     2.8605      0.443440
     2.8610      0.445220
     2.8615      0.447010
     2.8620      0.448780
     2.8625      0.450450
     2.8630      0.452270
     2.8635      0.454340
     2.8640      0.456400
     2.8645      0.458290
     2.8650      0.459570
     2.8655      0.460840
     2.8660      0.462140
     2.8665      0.463920
     2.8670      0.465610
     2.8675      0.467210
     2.8680      0.469320
     2.8685      0.471700
     2.8690      0.474540
     2.8695      0.476630
     2.8700      0.478330
     2.8705      0.479490
     2.8710      0.480950
     2.8715      0.482650
     2.8720      0.484770
     2.8725      0.486990
     2.8730      0.489360
     2.8735      0.491470
     2.8740      0.493380
     2.8745      0.494740
     2.8750      0.496160
     2.8755      0.497630
     2.8760      0.499970
     2.8765      0.502200
     2.8770      0.504230
     2.8775      0.505270
     2.8780      0.506210
     2.8785      0.507840
     2.8790      0.510180
     2.8795      0.513000
     2.8800      0.515210
     2.8805      0.517320
     2.8810      0.519300
     2.8815      0.521350
     2.8820      0.523380
     2.8825      0.525280
     2.8830      0.527190
     2.8835      0.529100
     2.8840      0.530800
     2.8845      0.532630
     2.8850      0.534670
     2.8855      0.536790
     2.8860      0.538860
     2.8865      0.540560
     2.8870      0.542600
     2.8875      0.544910
     2.8880      0.547410
     2.8885      0.549670
     2.8890      0.551440
     2.8895      0.553080
     2.8900      0.554710
     2.8905      0.556640
     2.8910      0.558770
     2.8915      0.561070
     2.8920      0.563030
     2.8925      0.564950
     2.8930      0.566880
     2.8935      0.569160
     2.8940      0.571560
     2.8945      0.573490
     2.8950      0.575400
     2.8955      0.577260
     2.8960      0.579430
     2.8965      0.581650
     2.8970      0.583880
     2.8975      0.586140
     2.8980      0.588430
     2.8985      0.590190
     2.8990      0.591960
     2.8995      0.593760
     2.9000      0.595780
     2.9005      0.597870
     2.9010      0.599790
     2.9015      0.601920
     2.9020      0.604290
     2.9025      0.606220
     2.9030      0.607920
     2.9035      0.609090
     2.9040      0.610770
     2.9045      0.612770
     2.9050      0.615180
     2.9055      0.617440
     2.9060      0.619410
     2.9065      0.621400
     2.9070      0.623420
     2.9075      0.625700
     2.9080      0.627790
     2.9085      0.629680
     2.9090      0.631530
     2.9095      0.633480
     2.9100      0.635810
     2.9105      0.637820
     2.9110      0.639590
     2.9115      0.641470
     2.9120      0.643500
     2.9125      0.645830
     2.9130      0.647280
     2.9135      0.648300
     2.9140      0.649180
     2.9145      0.650550
     2.9150      0.652670
     2.9155      0.654700
     2.9160      0.656670
     2.9165      0.658450
     2.9170      0.660230
     2.9175      0.662020
     2.9180      0.663340
     2.9185      0.664610
     2.9190      0.666060
     2.9195      0.667640
     2.9200      0.669340
     2.9205      0.670520
     2.9210      0.671640
     2.9215      0.672750
     2.9220      0.674130
     2.9225      0.675690
     2.9230      0.677190
     2.9235      0.678610
     2.9240      0.679870
     2.9245      0.681170
     2.9250      0.682500
     2.9255      0.683580
     2.9260      0.684520
     2.9265      0.685220
     2.9270      0.686260
     2.9275      0.687430
     2.9280      0.688900
     2.9285      0.690180
     2.9290      0.691190
     2.9295      0.691970
     2.9300      0.692660
     2.9305      0.693250
     2.9310      0.693670
     2.9315      0.693870
     2.9320      0.694130
     2.9325      0.694500
     2.9330      0.695510
     2.9335      0.696500
     2.9340      0.697460
     2.9345      0.697890
     2.9350      0.698180
     2.9355      0.698400
     2.9360      0.698530
     2.9365      0.698600
     2.9370      0.698160
     2.9375      0.697610
     2.9380      0.697000
     2.9385      0.696760
     2.9390      0.696890
     2.9395      0.697430
     2.9400      0.698000
     2.9405      0.698280
     2.9410      0.698230
     2.9415      0.697870
     2.9420      0.697040
     2.9425      0.696020
     2.9430      0.694530
     2.9435      0.693360
     2.9440      0.692510
     2.9445      0.692520
     2.9450      0.692530
     2.9455      0.691540
     2.9460      0.690360
     2.9465      0.688940
     2.9470      0.688420
     2.9475      0.688030
     2.9480      0.687030
     2.9485      0.685860
     2.9490      0.684460
     2.9495      0.683650
     2.9500      0.683010
     2.9505      0.682430
     2.9510      0.681740
     2.9515      0.680900
     2.9520      0.679550
     2.9525      0.678000
     2.9530      0.676240
     2.9535      0.674680
     2.9540      0.673470
     2.9545      0.672010
     2.9550      0.670440
     2.9555      0.668180
     2.9560      0.665950
     2.9565      0.663770
     2.9570      0.661790
     2.9575      0.659920
     2.9580      0.658310
     2.9585      0.656700
     2.9590      0.655110
     2.9595      0.653200
     2.9600      0.651050
     2.9605      0.648780
     2.9610      0.646610
     2.9615      0.644900
     2.9620      0.643110
     2.9625      0.641260
     2.9630      0.639070
     2.9635      0.636810
     2.9640      0.634600
     2.9645      0.632290
     2.9650      0.629850
     2.9655      0.627340
     2.9660      0.624820
     2.9665      0.622750
     2.9670      0.620680
     2.9675      0.618610
     2.9680      0.616270
     2.9685      0.613780
     2.9690      0.611240
     2.9695      0.608790
     2.9700      0.606600
     2.9705      0.604490
     2.9710      0.602450
     2.9715      0.600200
     2.9720      0.597920
     2.9725      0.595710
     2.9730      0.593330
     2.9735      0.590720
     2.9740      0.587650
     2.9745      0.584410
     2.9750      0.581810
     2.9755      0.579340
     2.9760      0.577160
     2.9765      0.574870
     2.9770      0.572500
     2.9775      0.570380
     2.9780      0.568310
     2.9785      0.566250
     2.9790      0.564230
     2.9795      0.562270
     2.9800      0.560480
     2.9805      0.558730
     2.9810      0.556530
     2.9815      0.554110
     2.9820      0.551250
     2.9825      0.548390
     2.9830      0.545520
     2.9835      0.543070
     2.9840      0.540690
     2.9845      0.538400
     2.9850      0.536080
     2.9855      0.533710
     2.9860      0.531470
     2.9865      0.529270
     2.9870      0.527260
     2.9875      0.525270
     2.9880      0.523370
     2.9885      0.521390
     2.9890      0.519340
     2.9895      0.517240
     2.9900      0.515170
     2.9905      0.513330
     2.9910      0.511560
     2.9915      0.509900
     2.9920      0.508230
     2.9925      0.506570
     2.9930      0.504510
     2.9935      0.502380
     2.9940      0.500030
     2.9945      0.497900
     2.9950      0.495980
     2.9955      0.494320
     2.9960      0.492740
     2.9965      0.491020
     2.9970      0.489240
     2.9975      0.487320
     2.9980      0.485430
     2.9985      0.483590
     2.9990      0.481880
     2.9995      0.480170
     3.0000      0.478240
     3.0005      0.476400
     3.0010      0.474710
     3.0015      0.473390
     3.0020      0.472290
     3.0025      0.470800
     3.0030      0.469250
     3.0035      0.467600
     3.0040      0.466370
     3.0045      0.465700
     3.0050      0.465310
     3.0055      0.465060
     3.0060      0.464200
     3.0065      0.463130
     3.0070      0.461390
     3.0075      0.459790
     3.0080      0.458340
     3.0085      0.457230
     3.0090      0.456270
     3.0095      0.454720
     3.0100      0.453120
     3.0105      0.451410
     3.0110      0.450010
     3.0115      0.448950
     3.0120      0.448150
     3.0125      0.447450
     3.0130      0.446720
     3.0135      0.445940
     3.0140      0.445000
     3.0145      0.444040
     3.0150      0.443090
     3.0155      0.442200
     3.0160      0.441330
     3.0165      0.440670
     3.0170      0.440010
     3.0175      0.439350
     3.0180      0.438480
     3.0185      0.437370
     3.0190      0.436480
     3.0195      0.435700
     3.0200      0.435330
     3.0205      0.434970
     3.0210      0.434450
     3.0215      0.434130
     3.0220      0.434080
     3.0225      0.434140
     3.0230      0.434270
     3.0235      0.433900
     3.0240      0.433430
     3.0245      0.432670
     3.0250      0.431790
     3.0255      0.430710
     3.0260      0.429970
     3.0265      0.429460
     3.0270      0.429880
     3.0275      0.430470
     3.0280      0.430810
     3.0285      0.430940
     3.0290      0.430590
     3.0295      0.430390
     3.0300      0.430310
     3.0305      0.430600
     3.0310      0.431010
     3.0315      0.431090
     3.0320      0.431000
     3.0325      0.430330
     3.0330      0.429710
     3.0335      0.429170
     3.0340      0.429030
     3.0345      0.429090
     3.0350      0.429370
     3.0355      0.429700
     3.0360      0.430190
     3.0365      0.430620
     3.0370      0.430940
     3.0375      0.431120
     3.0380      0.431190
     3.0385      0.431750
     3.0390      0.432460
     3.0395      0.433730
     3.0400      0.434940
     3.0405      0.435930
     3.0410      0.436640
     3.0415      0.436980
     3.0420      0.436760
     3.0425      0.436230
     3.0430      0.435780
     3.0435      0.435440
     3.0440      0.436270
     3.0445      0.437180
     3.0450      0.438290
     3.0455      0.439220
     3.0460      0.439970
     3.0465      0.441060
     3.0470      0.442300
     3.0475      0.443540
     3.0480      0.444720
     3.0485      0.445470
     3.0490      0.446340
     3.0495      0.447460
     3.0500      0.448660
     3.0505      0.449910
     3.0510      0.450990
     3.0515      0.452000
     3.0520      0.453200
     3.0525      0.454400
     3.0530      0.455520
     3.0535      0.456650
     3.0540      0.457770
     3.0545      0.458970
     3.0550      0.460230
     3.0555      0.461300
     3.0560      0.462310
     3.0565      0.463660
     3.0570      0.465110
     3.0575      0.466930
     3.0580      0.468710
     3.0585      0.470410
     3.0590      0.472220
     3.0595      0.474110
     3.0600      0.475690
     3.0605      0.477160
     3.0610      0.478050
     3.0615      0.478980
     3.0620      0.480520
     3.0625      0.482160
     3.0630      0.484010
     3.0635      0.485740
     3.0640      0.487360
     3.0645      0.489280
     3.0650      0.491320
     3.0655      0.493420
     3.0660      0.495500
     3.0665      0.497270
     3.0670      0.499050
     3.0675      0.500850
     3.0680      0.502750
     3.0685      0.504760
     3.0690      0.506730
     3.0695      0.508670
     3.0700      0.510730
     3.0705      0.512810
     3.0710      0.515560
     3.0715      0.518270
     3.0720      0.520830
     3.0725      0.523120
     3.0730      0.524930
     3.0735      0.526850
     3.0740      0.528860
     3.0745      0.531110
     3.0750      0.533450
     3.0755      0.535410
     3.0760      0.537330
     3.0765      0.539250
     3.0770      0.541340
     3.0775      0.543950
     3.0780      0.546540
     3.0785      0.549090
     3.0790      0.551470
     3.0795      0.553750
     3.0800      0.556220
     3.0805      0.558750
     3.0810      0.561180
     3.0815      0.563560
     3.0820      0.565660
     3.0825      0.567760
     3.0830      0.569910
     3.0835      0.572330
     3.0840      0.575100
     3.0845      0.578030
     3.0850      0.581050
     3.0855      0.583500
     3.0860      0.585770
     3.0865      0.587760
     3.0870      0.589750
     3.0875      0.592030
     3.0880      0.594410
     3.0885      0.597070
     3.0890      0.599860
     3.0895      0.602840
     3.0900      0.605510
     3.0905      0.607940
     3.0910      0.609750
     3.0915      0.611320
     3.0920      0.613250
     3.0925      0.615270
     3.0930      0.618060
     3.0935      0.620750
     3.0940      0.623080
     3.0945      0.625350
     3.0950      0.627530
     3.0955      0.629930
     3.0960      0.632530
     3.0965      0.634610
     3.0970      0.636420
     3.0975      0.638220
     3.0980      0.640030
     3.0985      0.642640
     3.0990      0.645220
     3.0995      0.647340
     3.1000      0.649270
     3.1005      0.650650
     3.1010      0.651920
     3.1015      0.653030
     3.1020      0.654310
     3.1025      0.655730
     3.1030      0.657540
     3.1035      0.659520
     3.1040      0.661140
     3.1045      0.662670
     3.1050      0.663750
     3.1055      0.664870
     3.1060      0.666400
     3.1065      0.668000
     3.1070      0.669800
     3.1075      0.671460
     3.1080      0.672890
     3.1085      0.673900
     3.1090      0.674540
     3.1095      0.675040
     3.1100      0.675460
     3.1105      0.676550
     3.1110      0.677800
     3.1115      0.678870
     3.1120      0.679860
     3.1125      0.679880
     3.1130      0.679880
     3.1135      0.679800
     3.1140      0.679880
     3.1145      0.680320
     3.1150      0.680960
     3.1155      0.681860
     3.1160      0.682290
     3.1165      0.682400
     3.1170      0.681880
     3.1175      0.681100
     3.1180      0.680720
     3.1185      0.680420
     3.1190      0.680480
     3.1195      0.680560
     3.1200      0.680650
     3.1205      0.680630
     3.1210      0.680180
     3.1215      0.679470
     3.1220      0.678230
     3.1225      0.677070
     3.1230      0.676020
     3.1235      0.675040
     3.1240      0.674110
     3.1245      0.672980
     3.1250      0.671750
     3.1255      0.670480
     3.1260      0.669190
     3.1265      0.667820
     3.1270      0.666450
     3.1275      0.665180
     3.1280      0.663880
     3.1285      0.662410
     3.1290      0.660840
     3.1295      0.658930
     3.1300      0.657050
     3.1305      0.655210
     3.1310      0.653140
     3.1315      0.650820
     3.1320      0.648360
     3.1325      0.645800
     3.1330      0.643710
     3.1335      0.641830
     3.1340      0.640070
     3.1345      0.638340
     3.1350      0.636520
     3.1355      0.634690
     3.1360      0.632390
     3.1365      0.630100
     3.1370      0.627780
     3.1375      0.625540
     3.1380      0.623560
     3.1385      0.621400
     3.1390      0.618830
     3.1395      0.616450
     3.1400      0.614330
     3.1405      0.612280
     3.1410      0.610280
     3.1415      0.607690
     3.1420      0.604700
     3.1425      0.601810
     3.1430      0.598960
     3.1435      0.596300
     3.1440      0.593680
     3.1445      0.591320
     3.1450      0.589000
     3.1455      0.586570
     3.1460      0.584090
     3.1465      0.580970
     3.1470      0.577890
     3.1475      0.575000
     3.1480      0.572210
     3.1485      0.569700
     3.1490      0.567230
     3.1495      0.564800
     3.1500      0.562240
     3.1505      0.559480
     3.1510      0.556500
     3.1515      0.553300
     3.1520      0.550490
     3.1525      0.547920
     3.1530      0.545890
     3.1535      0.544100
     3.1540      0.541780
     3.1545      0.539290
     3.1550      0.536230
     3.1555      0.533060
     3.1560      0.530540
     3.1565      0.528070
     3.1570      0.525740
     3.1575      0.523390
     3.1580      0.520850
     3.1585      0.518320
     3.1590      0.515750
     3.1595      0.513080
     3.1600      0.510120
     3.1605      0.507320
     3.1610      0.504880
     3.1615      0.502520
     3.1620      0.500290
     3.1625      0.497700
     3.1630      0.494710
     3.1635      0.491730
     3.1640      0.488770
     3.1645      0.486180
     3.1650      0.483850
     3.1655      0.481960
     3.1660      0.480300
     3.1665      0.478640
     3.1670      0.476990
     3.1675      0.474900
     3.1680      0.472710
     3.1685      0.470240
     3.1690      0.467730
     3.1695      0.464950
     3.1700      0.462160
     3.1705      0.459510
     3.1710      0.456890
     3.1715      0.454740
     3.1720      0.452610
     3.1725      0.450720
     3.1730      0.448900
     3.1735      0.447330
     3.1740      0.445760
     3.1745      0.444140
     3.1750      0.442360
     3.1755      0.440190
     3.1760      0.438000
     3.1765      0.435760
     3.1770      0.433570
     3.1775      0.431460
     3.1780      0.429200
     3.1785      0.426740
     3.1790      0.424460
     3.1795      0.422360
     3.1800      0.420890
     3.1805      0.419930
     3.1810      0.419020
     3.1815      0.418140
     3.1820      0.416920
     3.1825      0.415500
     3.1830      0.413970
     3.1835      0.412390
     3.1840      0.410670
     3.1845      0.408910
     3.1850      0.406920
     3.1855      0.404880
     3.1860      0.402880
     3.1865      0.400880
     3.1870      0.399400
     3.1875      0.397990
     3.1880      0.396720
     3.1885      0.395470
     3.1890      0.394160
     3.1895      0.392860
     3.1900      0.392200
     3.1905      0.391550
     3.1910      0.390630
     3.1915      0.389640
     3.1920      0.387670
     3.1925      0.385720
     3.1930      0.383920
     3.1935      0.382230
     3.1940      0.381250
     3.1945      0.380290
     3.1950      0.379460
     3.1955      0.378570
     3.1960      0.377410
     3.1965      0.376300
     3.1970      0.375350
     3.1975      0.374510
     3.1980      0.373960
     3.1985      0.373260
     3.1990      0.372200
     3.1995      0.371110
     3.2000      0.369970
     3.2005      0.369070
     3.2010      0.368670
     3.2015      0.368160
     3.2020      0.367480
     3.2025      0.366580
     3.2030      0.365320
     3.2035      0.364160
     3.2040      0.363140
     3.2045      0.362260
     3.2050      0.361570
     3.2055      0.361070
     3.2060      0.360820
     3.2065      0.360680
     3.2070      0.360680
     3.2075      0.360350
     3.2080      0.359680
     3.2085      0.358930
     3.2090      0.358090
     3.2095      0.357610
     3.2100      0.357480
     3.2105      0.357170
     3.2110      0.356710
     3.2115      0.356020
     3.2120      0.355130
     3.2125      0.354390
     3.2130      0.353800
     3.2135      0.353150
     3.2140      0.352470
     3.2145      0.352030
     3.2150      0.351780
     3.2155      0.351610
     3.2160      0.351490
     3.2165      0.351080
     3.2170      0.350430
     3.2175      0.350140
     3.2180      0.350100
     3.2185      0.350380
     3.2190      0.350880
     3.2195      0.351230
     3.2200      0.351460
     3.2205      0.351510
     3.2210      0.351430
     3.2215      0.351140
     3.2220      0.350700
     3.2225      0.350400
     3.2230      0.350200
     3.2235      0.350380
     3.2240      0.350830
     3.2245      0.351140
     3.2250      0.351340
     3.2255      0.351210
     3.2260      0.350820
     3.2265      0.350760
     3.2270      0.350960
     3.2275      0.351440
     3.2280      0.352170
     3.2285      0.352710
     3.2290      0.353090
     3.2295      0.353500
     3.2300      0.353950
     3.2305      0.354490
     3.2310      0.355140
     3.2315      0.355620
     3.2320      0.355950
     3.2325      0.356070
     3.2330      0.355950
     3.2335      0.355980
     3.2340      0.356170
     3.2345      0.356720
     3.2350      0.357720
     3.2355      0.358660
     3.2360      0.359540
     3.2365      0.360280
     3.2370      0.360820
     3.2375      0.361400
     3.2380      0.362050
     3.2385      0.362610
     3.2390      0.363050
     3.2395      0.363470
     3.2400      0.363880
     3.2405      0.364450
     3.2410      0.365360
     3.2415      0.366340
     3.2420      0.367450
     3.2425      0.368480
     3.2430      0.369300
     3.2435      0.370040
     3.2440      0.370540
     3.2445      0.371090
     3.2450      0.371810
     3.2455      0.372670
     3.2460      0.374100
     3.2465      0.375490
     3.2470      0.376660
     3.2475      0.377740
     3.2480      0.378210
     3.2485      0.378700
     3.2490      0.379560
     3.2495      0.380440
     3.2500      0.381550
     3.2505      0.382670
     3.2510      0.383380
     3.2515      0.384100
     3.2520      0.385000
     3.2525      0.385910
     3.2530      0.387270
     3.2535      0.388660
     3.2540      0.390300
     3.2545      0.391960
     3.2550      0.393630
     3.2555      0.395310
     3.2560      0.396630
     3.2565      0.397870
     3.2570      0.398960
     3.2575      0.400000
     3.2580      0.401220
     3.2585      0.402510
     3.2590      0.403790
     3.2595      0.405070
     3.2600      0.406420
     3.2605      0.407790
     3.2610      0.409300
     3.2615      0.410920
     3.2620      0.412570
     3.2625      0.414250
     3.2630      0.416030
     3.2635      0.417950
     3.2640      0.419910
     3.2645      0.421950
     3.2650      0.423940
     3.2655      0.425850
     3.2660      0.427720
     3.2665      0.429520
     3.2670      0.431320
     3.2675      0.433100
     3.2680      0.434870
     3.2685      0.436610
     3.2690      0.438330
     3.2695      0.439840
     3.2700      0.441350
     3.2705      0.442840
     3.2710      0.444320
     3.2715      0.446190
     3.2720      0.448070
     3.2725      0.450550
     3.2730      0.453080
     3.2735      0.455600
     3.2740      0.458120
     3.2745      0.460040
     3.2750      0.461820
     3.2755      0.463790
     3.2760      0.465850
     3.2765      0.468080
     3.2770      0.470390
     3.2775      0.472390
     3.2780      0.474160
     3.2785      0.476330
     3.2790      0.478880
     3.2795      0.481610
     3.2800      0.484550
     3.2805      0.487000
     3.2810      0.488630
     3.2815      0.490230
     3.2820      0.491750
     3.2825      0.493490
     3.2830      0.496050
     3.2835      0.498650
     3.2840      0.501560
     3.2845      0.504450
     3.2850      0.506960
     3.2855      0.509460
     3.2860      0.511550
     3.2865      0.513620
     3.2870      0.516040
     3.2875      0.518500
     3.2880      0.520840
     3.2885      0.523150
     3.2890      0.524640
     3.2895      0.525810
     3.2900      0.527430
     3.2905      0.529310
     3.2910      0.531960
     3.2915      0.535270
     3.2920      0.538380
     3.2925      0.541280
     3.2930      0.543960
     3.2935      0.546260
     3.2940      0.548570
     3.2945      0.550920
     3.2950      0.553260
     3.2955      0.555580
     3.2960      0.557860
     3.2965      0.559890
     3.2970      0.561920
     3.2975      0.564110
     3.2980      0.566310
     3.2985      0.568630
     3.2990      0.570960
     3.2995      0.572870
     3.3000      0.574670
     3.3005      0.576630
     3.3010      0.578650
     3.3015      0.580760
     3.3020      0.582940
     3.3025      0.585120
     3.3030      0.587310
     3.3035      0.589670
     3.3040      0.592280
     3.3045      0.594650
     3.3050      0.596410
     3.3055      0.598120
     3.3060      0.599530
     3.3065      0.600990
     3.3070      0.602990
     3.3075      0.605000
     3.3080      0.606940
     3.3085      0.608880
     3.3090      0.610940
     3.3095      0.613040
     3.3100      0.615080
     3.3105      0.617110
     3.3110      0.618890
     3.3115      0.620500
     3.3120      0.622130
     3.3125      0.623790
     3.3130      0.625600
     3.3135      0.627660
     3.3140      0.629720
     3.3145      0.631770
     3.3150      0.633620
     3.3155      0.634290
     3.3160      0.634940
     3.3165      0.635080
     3.3170      0.635220
     3.3175      0.636540
     3.3180      0.637980
     3.3185      0.639750
     3.3190      0.641620
     3.3195      0.643090
     3.3200      0.644370
     3.3205      0.645360
     3.3210      0.646080
     3.3215      0.646730
     3.3220      0.647260
     3.3225      0.647820
     3.3230      0.648450
     3.3235      0.649040
     3.3240      0.649410
     3.3245      0.649780
     3.3250      0.650360
     3.3255      0.650940
     3.3260      0.651830
     3.3265      0.652770
     3.3270      0.653150
     3.3275      0.653360
     3.3280      0.653180
     3.3285      0.652760
     3.3290      0.652470
     3.3295      0.652320
     3.3300      0.652350
     3.3305      0.652690
     3.3310      0.652980
     3.3315      0.653060
     3.3320      0.653090
     3.3325      0.652570
     3.3330      0.652040
     3.3335      0.651670
     3.3340      0.651310
     3.3345      0.650970
     3.3350      0.650630
     3.3355      0.650110
     3.3360      0.649500
     3.3365      0.648940
     3.3370      0.648450
     3.3375      0.647880
     3.3380      0.647160
     3.3385      0.646430
     3.3390      0.645600
     3.3395      0.644790
     3.3400      0.644300
     3.3405      0.643810
     3.3410      0.642810
     3.3415      0.641750
     3.3420      0.640400
     3.3425      0.638950
     3.3430      0.637820
     3.3435      0.636910
     3.3440      0.635880
     3.3445      0.634700
     3.3450      0.633530
     3.3455      0.632370
     3.3460      0.631260
     3.3465      0.630570
     3.3470      0.629880
     3.3475      0.628650
     3.3480      0.627390
     3.3485      0.625820
     3.3490      0.624170
     3.3495      0.622510
     3.3500      0.620840
     3.3505      0.619290
     3.3510      0.617880
     3.3515      0.616650
     3.3520      0.615830
     3.3525      0.614950
     3.3530      0.613580
     3.3535      0.612220
     3.3540      0.610210
     3.3545      0.608160
     3.3550      0.606550
     3.3555      0.605050
     3.3560      0.603570
     3.3565      0.602100
     3.3570      0.600340
     3.3575      0.598220
     3.3580      0.596140
     3.3585      0.594130
     3.3590      0.592130
     3.3595      0.590080
     3.3600      0.588030
     3.3605      0.585610
     3.3610      0.583150
     3.3615      0.581090
     3.3620      0.579170
     3.3625      0.577500
     3.3630      0.576020
     3.3635      0.574330
     3.3640      0.572270
     3.3645      0.570170
     3.3650      0.567910
     3.3655      0.565660
     3.3660      0.563780
     3.3665      0.561900
     3.3670      0.559980
     3.3675      0.558060
     3.3680      0.556340
     3.3685      0.554710
     3.3690      0.553350
     3.3695      0.552290
     3.3700      0.551070
     3.3705      0.549390
     3.3710      0.547650
     3.3715      0.545300
     3.3720      0.542950
     3.3725      0.540880
     3.3730      0.538850
     3.3735      0.537020
     3.3740      0.535280
     3.3745      0.533520
     3.3750      0.531720
     3.3755      0.529880
     3.3760      0.527910
     3.3765      0.525920
     3.3770      0.523750
     3.3775      0.521570
     3.3780      0.519690
     3.3785      0.517850
     3.3790      0.516450
     3.3795      0.515260
     3.3800      0.513980
     3.3805      0.512640
     3.3810      0.511240
     3.3815      0.509720
     3.3820      0.508220
     3.3825      0.506950
     3.3830      0.505680
     3.3835      0.504170
     3.3840      0.502620
     3.3845      0.500780
     3.3850      0.498800
     3.3855      0.496830
     3.3860      0.494890
     3.3865      0.493080
     3.3870      0.491630
     3.3875      0.490170
     3.3880      0.488560
     3.3885      0.486950
     3.3890      0.485250
     3.3895      0.483520
     3.3900      0.482180
     3.3905      0.481080
     3.3910      0.479740
     3.3915      0.478000
     3.3920      0.476240
     3.3925      0.474360
     3.3930      0.472480
     3.3935      0.471400
     3.3940      0.470360
     3.3945      0.469020
     3.3950      0.467580
     3.3955      0.466280
     3.3960      0.465130
     3.3965      0.464120
     3.3970      0.463430
     3.3975      0.462720
     3.3980      0.461540
     3.3985      0.460360
     3.3990      0.459440
     3.3995      0.458590
     3.4000      0.457880
     3.4005      0.457270
     3.4010      0.456450
     3.4015      0.455270
     3.4020      0.454040
     3.4025      0.452480
     3.4030      0.450930
     3.4035      0.449670
     3.4040      0.448450
     3.4045      0.447250
     3.4050      0.446070
     3.4055      0.444710
     3.4060      0.443120
     3.4065      0.441640
     3.4070      0.440570
     3.4075      0.439500
     3.4080      0.438630
     3.4085      0.437760
     3.4090      0.436770
     3.4095      0.435730
     3.4100      0.434940
     3.4105      0.434450
     3.4110      0.433930
     3.4115      0.433340
     3.4120      0.432750
     3.4125      0.431630
     3.4130      0.430510
     3.4135      0.429160
     3.4140      0.427730
     3.4145      0.426470
     3.4150      0.425380
     3.4155      0.424530
     3.4160      0.424410
     3.4165      0.424290
     3.4170      0.423770
     3.4175      0.423240
     3.4180      0.422160
     3.4185      0.420880
     3.4190      0.419980
     3.4195      0.419460
     3.4200      0.419040
     3.4205      0.418960
     3.4210      0.418870
     3.4215      0.418480
     3.4220      0.418090
     3.4225      0.417690
     3.4230      0.417290
     3.4235      0.416860
     3.4240      0.416400
     3.4245      0.415910
     3.4250      0.415350
     3.4255      0.414790
     3.4260      0.413960
     3.4265      0.413110
     3.4270      0.411990
     3.4275      0.410750
     3.4280      0.409740
     3.4285      0.409070
     3.4290      0.408520
     3.4295      0.408730
     3.4300      0.408940
     3.4305      0.409220
     3.4310      0.409510
     3.4315      0.409530
     3.4320      0.409360
     3.4325      0.409100
     3.4330      0.408680
     3.4335      0.408300
     3.4340      0.408510
     3.4345      0.408720
     3.4350      0.408730
     3.4355      0.408690
     3.4360      0.408240
     3.4365      0.407370
     3.4370      0.406660
     3.4375      0.406480
     3.4380      0.406310
     3.4385      0.406440
     3.4390      0.406580
     3.4395      0.406470
     3.4400      0.406230
     3.4405      0.406030
     3.4410      0.405900
     3.4415      0.405730
     3.4420      0.405250
     3.4425      0.404770
     3.4430      0.404410
     3.4435      0.404070
     3.4440      0.404250
     3.4445      0.404880
     3.4450      0.405420
     3.4455      0.405700
     3.4460      0.405980
     3.4465      0.405370
     3.4470      0.404720
     3.4475      0.404240
     3.4480      0.403830
     3.4485      0.403640
     3.4490      0.403830
     3.4495      0.404030
     3.4500      0.404530
     3.4505      0.405030
     3.4510      0.405140
     3.4515      0.405150
     3.4520      0.404960
     3.4525      0.404560
     3.4530      0.404320
     3.4535      0.404760
     3.4540      0.405210
     3.4545      0.405660
     3.4550      0.406110
     3.4555      0.406190
     3.4560      0.405990
     3.4565      0.405870
     3.4570      0.405930
     3.4575      0.405990
     3.4580      0.406580
     3.4585      0.407190
     3.4590      0.407650
     3.4595      0.408030
     3.4600      0.408240
     3.4605      0.408170
     3.4610      0.408130
     3.4615      0.408670
     3.4620      0.409210
     3.4625      0.409690
     3.4630      0.410160
     3.4635      0.410490
     3.4640      0.410660
     3.4645      0.410850
     3.4650      0.411250
     3.4655      0.411660
     3.4660      0.411110
     3.4665      0.410310
     3.4670      0.409830
     3.4675      0.409680
     3.4680      0.409880
     3.4685      0.411850
     3.4690      0.413820
     3.4695      0.414770
     3.4700      0.415530
     3.4705      0.415390
     3.4710      0.414410
     3.4715      0.413550
     3.4720      0.413150
     3.4725      0.412740
     3.4730      0.412700
     3.4735      0.412720
     3.4740      0.412840
     3.4745      0.413050
     3.4750      0.413440
     3.4755      0.414530
     3.4760      0.415630
     3.4765      0.416680
     3.4770      0.417730
     3.4775      0.418470
     3.4780      0.418960
     3.4785      0.419310
     3.4790      0.419160
     3.4795      0.419020
     3.4800      0.418150
     3.4805      0.417190
     3.4810      0.416770
     3.4815      0.416800
     3.4820      0.416970
     3.4825      0.417650
     3.4830      0.418330
     3.4835      0.418360
     3.4840      0.418290
     3.4845      0.418570
     3.4850      0.419130
     3.4855      0.419730
     3.4860      0.420440
     3.4865      0.421160
     3.4870      0.420800
     3.4875      0.420240
     3.4880      0.419750
     3.4885      0.419320
     3.4890      0.419070
     3.4895      0.419760
     3.4900      0.420450
     3.4905      0.420710
     3.4910      0.420860
     3.4915      0.420620
     3.4920      0.419910
     3.4925      0.419330
     3.4930      0.419870
     3.4935      0.420410
     3.4940      0.420710
     3.4945      0.420930
     3.4950      0.420320
     3.4955      0.418420
     3.4960      0.416560
     3.4965      0.415890
     3.4970      0.415220
     3.4975      0.415620
     3.4980      0.416540
     3.4985      0.417240
     3.4990      0.417500
     3.4995      0.417760
     3.5000      0.418230
     3.5005      0.418700
     3.5010      0.418680
     3.5015      0.418320
     3.5020      0.417610
     3.5025      0.415740
     3.5030      0.413870
     3.5035      0.413080
     3.5040      0.412460
     3.5045      0.412470
     3.5050      0.413110
     3.5055      0.413650
     3.5060      0.413510
     3.5065      0.413360
     3.5070      0.412890
     3.5075      0.412320
     3.5080      0.411960
     3.5085      0.411950
     3.5090      0.411930
     3.5095      0.411680
     3.5100      0.411440
     3.5105      0.410770
     3.5110      0.409860
     3.5115      0.409050
     3.5120      0.408510
     3.5125      0.407970
     3.5130      0.407710
     3.5135      0.407500
     3.5140      0.406940
     3.5145      0.406040
     3.5150      0.405080
     3.5155      0.403660
     3.5160      0.402250
     3.5165      0.401190
     3.5170      0.400260
     3.5175      0.399530
     3.5180      0.399170
     3.5185      0.398820
     3.5190      0.398460
     3.5195      0.398100
     3.5200      0.397500
     3.5205      0.396720
     3.5210      0.395860
     3.5215      0.394690
     3.5220      0.393520
     3.5225      0.392020
     3.5230      0.390420
     3.5235      0.388840
     3.5240      0.387290
     3.5245      0.385730
     3.5250      0.385630
     3.5255      0.385520
     3.5260      0.385270
     3.5265      0.384930
     3.5270      0.384170
     3.5275      0.381830
     3.5280      0.379500
     3.5285      0.377430
     3.5290      0.375440
     3.5295      0.374010
     3.5300      0.373410
     3.5305      0.372810
     3.5310      0.371970
     3.5315      0.371130
     3.5320      0.369570
     3.5325      0.367520
     3.5330      0.365540
     3.5335      0.363880
     3.5340      0.362210
     3.5345      0.360920
     3.5350      0.359730
     3.5355      0.358180
     3.5360      0.356050
     3.5365      0.353910
     3.5370      0.352800
     3.5375      0.351730
     3.5380      0.351220
     3.5385      0.351180
     3.5390      0.350990
     3.5395      0.349740
     3.5400      0.348490
     3.5405      0.346040
     3.5410      0.343110
     3.5415      0.340220
     3.5420      0.337420
     3.5425      0.334620
     3.5430      0.334520
     3.5435      0.334790
     3.5440      0.335280
     3.5445      0.336030
     3.5450      0.336690
     3.5455      0.334860
     3.5460      0.333020
     3.5465      0.330620
     3.5470      0.327850
     3.5475      0.325350
     3.5480      0.324050
     3.5485      0.322750
     3.5490      0.322460
     3.5495      0.322500
     3.5500      0.321680
     3.5505      0.319040
     3.5510      0.316390
     3.5515      0.313090
     3.5520      0.309710
     3.5525      0.307920
     3.5530      0.308020
     3.5535      0.308110
     3.5540      0.307570
     3.5545      0.307040
     3.5550      0.305350
     3.5555      0.302850
     3.5560      0.300570
     3.5565      0.299600
     3.5570      0.298630
     3.5575      0.298090
     3.5580      0.297720
     3.5585      0.296980
     3.5590      0.295200
     3.5595      0.293420
     3.5600      0.291330
     3.5605      0.289160
     3.5610      0.286710
     3.5615      0.283790
     3.5620      0.280870
     3.5625      0.277730
     3.5630      0.274580
     3.5635      0.273040
     3.5640      0.273210
     3.5645      0.273410
     3.5650      0.274140
     3.5655      0.274880
     3.5660      0.273660
     3.5665      0.271050
     3.5670      0.268400
     3.5675      0.265400
     3.5680      0.262410
     3.5685      0.260130
     3.5690      0.258200
     3.5695      0.256360
     3.5700      0.254860
     3.5705      0.253350
     3.5710      0.252940
     3.5715      0.252880
