# author : Oliver Czoske
# source : Ester Aranzana
# date_created : 2017-11-20
# date_modified: 2025-12-16
# status: Measured at 80 K
# wavelength_unit : um
# changes :
# - 2022-03-17 (KL) Updated to match Ric Davies' email
# - 2023-06-06 (RD) Modified profiles after discussion with Schott
# - 2025-06-16 (FH) Updated filter curve based on Ric Davies' email.
# - 2025-12-16 (OC) Replaced with measured values
#
 wavelength  transmission
     0.4990      0.000000
     0.4995      0.000000
     0.5000      0.003170
     0.5005      0.001090
     0.5010      0.000000
     0.5015      0.002960
     0.5020      0.000000
     0.5025      0.000000
     0.5030      0.001220
     0.5035      0.003790
     0.5040      0.001720
     0.5045      0.000000
     0.5050      0.000000
     0.5055      0.001260
     0.5060      0.000020
     0.5065      0.000050
     0.5070      0.000650
     0.5075      0.002380
     0.5080      0.000000
     0.5085      0.003300
     0.5090      0.001250
     0.5095      0.000180
     0.5100      0.009150
     0.5105      0.005120
     0.5110      0.004410
     0.5115      0.000140
     0.5120      0.000000
     0.5125      0.000000
     0.5130      0.002760
     0.5135      0.000000
     0.5140      0.000210
     0.5145      0.000660
     0.5150      0.004240
     0.5155      0.000600
     0.5160      0.003470
     0.5165      0.000000
     0.5170      0.014460
     0.5175      0.003420
     0.5180      0.001590
     0.5185      0.004400
     0.5190      0.000000
     0.5195      0.002940
     0.5200      0.003170
     0.5205      0.005580
     0.5210      0.001680
     0.5215      0.002040
     0.5220      0.000130
     0.5225      0.001550
     0.5230      0.003400
     0.5235      0.000000
     0.5240      0.007320
     0.5245      0.000630
     0.5250      0.000740
     0.5255      0.000000
     0.5260      0.002880
     0.5265      0.006040
     0.5270      0.004500
     0.5275      0.003150
     0.5280      0.002900
     0.5285      0.000800
     0.5290      0.002930
     0.5295      0.004220
     0.5300      0.001910
     0.5305      0.002020
     0.5310      0.000000
     0.5315      0.000140
     0.5320      0.000000
     0.5325      0.004010
     0.5330      0.002560
     0.5335      0.000000
     0.5340      0.000090
     0.5345      0.000030
     0.5350      0.004220
     0.5355      0.000000
     0.5360      0.000700
     0.5365      0.001640
     0.5370      0.003740
     0.5375      0.000000
     0.5380      0.000190
     0.5385      0.000000
     0.5390      0.000000
     0.5395      0.003710
     0.5400      0.000360
     0.5405      0.000830
     0.5410      0.000000
     0.5415      0.000040
     0.5420      0.000070
     0.5425      0.000700
     0.5430      0.002400
     0.5435      0.002960
     0.5440      0.000460
     0.5445      0.000000
     0.5450      0.000090
     0.5455      0.004890
     0.5460      0.001510
     0.5465      0.000300
     0.5470      0.000830
     0.5475      0.000690
     0.5480      0.000970
     0.5485      0.003100
     0.5490      0.001680
     0.5495      0.000000
     0.5500      0.001800
     0.5505      0.000030
     0.5510      0.001260
     0.5515      0.001410
     0.5520      0.000010
     0.5525      0.000600
     0.5530      0.000000
     0.5535      0.001200
     0.5540      0.001450
     0.5545      0.002410
     0.5550      0.000000
     0.5555      0.000520
     0.5560      0.000000
     0.5565      0.000000
     0.5570      0.000000
     0.5575      0.001740
     0.5580      0.000000
     0.5585      0.001010
     0.5590      0.001980
     0.5595      0.000000
     0.5600      0.000030
     0.5605      0.000270
     0.5610      0.000210
     0.5615      0.001960
     0.5620      0.000390
     0.5625      0.000000
     0.5630      0.001620
     0.5635      0.000050
     0.5640      0.002330
     0.5645      0.000420
     0.5650      0.000000
     0.5655      0.001900
     0.5660      0.000230
     0.5665      0.001760
     0.5670      0.002020
     0.5675      0.000000
     0.5680      0.000090
     0.5685      0.001700
     0.5690      0.000000
     0.5695      0.000000
     0.5700      0.001170
     0.5705      0.000100
     0.5710      0.000580
     0.5715      0.000310
     0.5720      0.000850
     0.5725      0.000190
     0.5730      0.000330
     0.5735      0.000000
     0.5740      0.000090
     0.5745      0.000820
     0.5750      0.000230
     0.5755      0.001050
     0.5760      0.001620
     0.5765      0.002490
     0.5770      0.001400
     0.5775      0.001610
     0.5780      0.000930
     0.5785      0.000000
     0.5790      0.000000
     0.5795      0.000290
     0.5800      0.000360
     0.5805      0.002960
     0.5810      0.006120
     0.5815      0.007930
     0.5820      0.009660
     0.5825      0.009370
     0.5830      0.000000
     0.5835      0.000000
     0.5840      0.003330
     0.5845      0.009370
     0.5850      0.013140
     0.5855      0.014670
     0.5860      0.014590
     0.5865      0.011550
     0.5870      0.008050
     0.5875      0.004260
     0.5880      0.001140
     0.5885      0.000420
     0.5890      0.000000
     0.5895      0.000000
     0.5900      0.000000
     0.5905      0.000000
     0.5910      0.000180
     0.5915      0.000000
     0.5920      0.000000
     0.5925      0.000370
     0.5930      0.000140
     0.5935      0.000000
     0.5940      0.000340
     0.5945      0.000130
     0.5950      0.000870
     0.5955      0.000600
     0.5960      0.000330
     0.5965      0.000100
     0.5970      0.000320
     0.5975      0.000860
     0.5980      0.000840
     0.5985      0.000550
     0.5990      0.000910
     0.5995      0.000760
     0.6000      0.000680
     0.6005      0.000820
     0.6010      0.000940
     0.6015      0.000440
     0.6020      0.000360
     0.6025      0.000810
     0.6030      0.000480
     0.6035      0.000400
     0.6040      0.000410
     0.6045      0.000170
     0.6050      0.000000
     0.6055      0.000060
     0.6060      0.000230
     0.6065      0.000330
     0.6070      0.000300
     0.6075      0.000240
     0.6080      0.000230
     0.6085      0.000180
     0.6090      0.000300
     0.6095      0.000250
     0.6100      0.000240
     0.6105      0.000130
     0.6110      0.000000
     0.6115      0.000600
     0.6120      0.000410
     0.6125      0.000400
     0.6130      0.000430
     0.6135      0.000300
     0.6140      0.000730
     0.6145      0.000110
     0.6150      0.000000
     0.6155      0.000600
     0.6160      0.000390
     0.6165      0.000770
     0.6170      0.000040
     0.6175      0.000000
     0.6180      0.000000
     0.6185      0.000010
     0.6190      0.000000
     0.6195      0.000690
     0.6200      0.000080
     0.6205      0.000030
     0.6210      0.000000
     0.6215      0.000750
     0.6220      0.000120
     0.6225      0.000650
     0.6230      0.000340
     0.6235      0.000210
     0.6240      0.000740
     0.6245      0.000040
     0.6250      0.000000
     0.6255      0.000610
     0.6260      0.000480
     0.6265      0.000520
     0.6270      0.000410
     0.6275      0.000030
     0.6280      0.000070
     0.6285      0.000340
     0.6290      0.000000
     0.6295      0.000000
     0.6300      0.000030
     0.6305      0.000000
     0.6310      0.000470
     0.6315      0.000950
     0.6320      0.000790
     0.6325      0.001300
     0.6330      0.011290
     0.6335      0.000890
     0.6340      0.000680
     0.6345      0.000300
     0.6350      0.000000
     0.6355      0.000000
     0.6360      0.000090
     0.6365      0.000020
     0.6370      0.000040
     0.6375      0.000160
     0.6380      0.000060
     0.6385      0.000090
     0.6390      0.000140
     0.6395      0.000290
     0.6400      0.000240
     0.6405      0.000500
     0.6410      0.000000
     0.6415      0.000210
     0.6420      0.000030
     0.6425      0.000030
     0.6430      0.000370
     0.6435      0.000300
     0.6440      0.000010
     0.6445      0.000120
     0.6450      0.000000
     0.6455      0.000040
     0.6460      0.000370
     0.6465      0.000280
     0.6470      0.000180
     0.6475      0.000120
     0.6480      0.000000
     0.6485      0.000000
     0.6490      0.000000
     0.6495      0.000010
     0.6500      0.000000
     0.6505      0.000120
     0.6510      0.000310
     0.6515      0.000000
     0.6520      0.000270
     0.6525      0.000090
     0.6530      0.000000
     0.6535      0.000040
     0.6540      0.000000
     0.6545      0.000170
     0.6550      0.000030
     0.6555      0.000040
     0.6560      0.000160
     0.6565      0.000110
     0.6570      0.000120
     0.6575      0.000080
     0.6580      0.000010
     0.6585      0.000020
     0.6590      0.000000
     0.6595      0.000320
     0.6600      0.000120
     0.6605      0.000080
     0.6610      0.000090
     0.6615      0.000100
     0.6620      0.000000
     0.6625      0.000000
     0.6630      0.000020
     0.6635      0.000000
     0.6640      0.000050
     0.6645      0.000090
     0.6650      0.000140
     0.6655      0.000110
     0.6660      0.000150
     0.6665      0.000020
     0.6670      0.000010
     0.6675      0.000060
     0.6680      0.000000
     0.6685      0.000000
     0.6690      0.000260
     0.6695      0.000150
     0.6700      0.000120
     0.6705      0.000000
     0.6710      0.000000
     0.6715      0.000200
     0.6720      0.000050
     0.6725      0.000040
     0.6730      0.000230
     0.6735      0.000190
     0.6740      0.000210
     0.6745      0.000490
     0.6750      0.000780
     0.6755      0.000970
     0.6760      0.001340
     0.6765      0.001750
     0.6770      0.002060
     0.6775      0.002600
     0.6780      0.003310
     0.6785      0.003420
     0.6790      0.002890
     0.6795      0.001950
     0.6800      0.001150
     0.6805      0.000550
     0.6810      0.000270
     0.6815      0.000280
     0.6820      0.000120
     0.6825      0.000020
     0.6830      0.000050
     0.6835      0.000000
     0.6840      0.000080
     0.6845      0.000040
     0.6850      0.000030
     0.6855      0.000190
     0.6860      0.000070
     0.6865      0.000000
     0.6870      0.000230
     0.6875      0.000030
     0.6880      0.000060
     0.6885      0.000030
     0.6890      0.000010
     0.6895      0.000000
     0.6900      0.000000
     0.6905      0.000000
     0.6910      0.000140
     0.6915      0.000130
     0.6920      0.000000
     0.6925      0.000110
     0.6930      0.000250
     0.6935      0.000100
     0.6940      0.000000
     0.6945      0.000000
     0.6950      0.000000
     0.6955      0.000120
     0.6960      0.000010
     0.6965      0.000090
     0.6970      0.000040
     0.6975      0.000000
     0.6980      0.000110
     0.6985      0.000050
     0.6990      0.000030
     0.6995      0.000010
     0.7000      0.000190
     0.7005      0.000060
     0.7010      0.000000
     0.7015      0.000000
     0.7020      0.000090
     0.7025      0.000010
     0.7030      0.000220
     0.7035      0.000070
     0.7040      0.000060
     0.7045      0.000020
     0.7050      0.000000
     0.7055      0.000070
     0.7060      0.000000
     0.7065      0.000140
     0.7070      0.000050
     0.7075      0.000050
     0.7080      0.000050
     0.7085      0.000000
     0.7090      0.000060
     0.7095      0.000000
     0.7100      0.000090
     0.7105      0.000000
     0.7110      0.000000
     0.7115      0.000000
     0.7120      0.000010
     0.7125      0.000080
     0.7130      0.000080
     0.7135      0.000070
     0.7140      0.000140
     0.7145      0.000140
     0.7150      0.000000
     0.7155      0.000000
     0.7160      0.000150
     0.7165      0.000000
     0.7170      0.000000
     0.7175      0.000010
     0.7180      0.000030
     0.7185      0.000050
     0.7190      0.000000
     0.7195      0.000020
     0.7200      0.000080
     0.7205      0.000020
     0.7210      0.000010
     0.7215      0.000000
     0.7220      0.000250
     0.7225      0.000160
     0.7230      0.000030
     0.7235      0.000170
     0.7240      0.000000
     0.7245      0.000070
     0.7250      0.000000
     0.7255      0.000030
     0.7260      0.000040
     0.7265      0.000000
     0.7270      0.000000
     0.7275      0.000100
     0.7280      0.000000
     0.7285      0.000000
     0.7290      0.000010
     0.7295      0.000070
     0.7300      0.000010
     0.7305      0.000090
     0.7310      0.000010
     0.7315      0.000110
     0.7320      0.000010
     0.7325      0.000100
     0.7330      0.000040
     0.7335      0.000000
     0.7340      0.000090
     0.7345      0.000030
     0.7350      0.000100
     0.7355      0.000000
     0.7360      0.000000
     0.7365      0.000020
     0.7370      0.000000
     0.7375      0.000140
     0.7380      0.000020
     0.7385      0.000000
     0.7390      0.000090
     0.7395      0.000020
     0.7400      0.000060
     0.7405      0.000050
     0.7410      0.000020
     0.7415      0.000120
     0.7420      0.000090
     0.7425      0.000130
     0.7430      0.000000
     0.7435      0.000020
     0.7440      0.000010
     0.7445      0.000090
     0.7450      0.000040
     0.7455      0.000000
     0.7460      0.000050
     0.7465      0.000000
     0.7470      0.000010
     0.7475      0.000000
     0.7480      0.000050
     0.7485      0.000000
     0.7490      0.000020
     0.7495      0.000000
     0.7500      0.000120
     0.7505      0.000120
     0.7510      0.000050
     0.7515      0.000130
     0.7520      0.000060
     0.7525      0.000050
     0.7530      0.000160
     0.7535      0.000120
     0.7540      0.000240
     0.7545      0.000150
     0.7550      0.000210
     0.7555      0.000110
     0.7560      0.000120
     0.7565      0.000050
     0.7570      0.000040
     0.7575      0.000000
     0.7580      0.000130
     0.7585      0.000120
     0.7590      0.000350
     0.7595      0.000440
     0.7600      0.000780
     0.7605      0.001470
     0.7610      0.003400
     0.7615      0.007540
     0.7620      0.006000
     0.7625      0.002900
     0.7630      0.001670
     0.7635      0.001260
     0.7640      0.001050
     0.7645      0.000970
     0.7650      0.000890
     0.7655      0.000820
     0.7660      0.001040
     0.7665      0.001200
     0.7670      0.001150
     0.7675      0.001320
     0.7680      0.001220
     0.7685      0.000990
     0.7690      0.000790
     0.7695      0.000560
     0.7700      0.000460
     0.7705      0.000420
     0.7710      0.000370
     0.7715      0.000290
     0.7720      0.000280
     0.7725      0.000280
     0.7730      0.000160
     0.7735      0.000190
     0.7740      0.000150
     0.7745      0.000190
     0.7750      0.000040
     0.7755      0.000100
     0.7760      0.000130
     0.7765      0.000050
     0.7770      0.000130
     0.7775      0.000000
     0.7780      0.000090
     0.7785      0.000110
     0.7790      0.000040
     0.7795      0.000050
     0.7800      0.000020
     0.7805      0.000040
     0.7810      0.000020
     0.7815      0.000090
     0.7820      0.000080
     0.7825      0.000140
     0.7830      0.000070
     0.7835      0.000060
     0.7840      0.000140
     0.7845      0.000110
     0.7850      0.000100
     0.7855      0.000040
     0.7860      0.000020
     0.7865      0.000060
     0.7870      0.000030
     0.7875      0.000220
     0.7880      0.000180
     0.7885      0.000470
     0.7890      0.000390
     0.7895      0.000240
     0.7900      0.000040
     0.7905      0.000020
     0.7910      0.000100
     0.7915      0.000060
     0.7920      0.000030
     0.7925      0.000010
     0.7930      0.000030
     0.7935      0.000020
     0.7940      0.000010
     0.7945      0.000010
     0.7950      0.000000
     0.7955      0.000020
     0.7960      0.000040
     0.7965      0.000020
     0.7970      0.000020
     0.7975      0.000020
     0.7980      0.000010
     0.7985      0.000000
     0.7990      0.000000
     0.7995      0.000060
     0.8000      0.000030
     0.8005      0.000000
     0.8010      0.000060
     0.8015      0.000070
     0.8020      0.000050
     0.8025      0.000060
     0.8030      0.000190
     0.8035      0.000420
     0.8040      0.001250
     0.8045      0.004510
     0.8050      0.005970
     0.8055      0.002360
     0.8060      0.001370
     0.8065      0.001070
     0.8070      0.001110
     0.8075      0.001470
     0.8080      0.002560
     0.8085      0.002990
     0.8090      0.001080
     0.8095      0.000330
     0.8100      0.000190
     0.8105      0.000100
     0.8110      0.000020
     0.8115      0.000030
     0.8120      0.000000
     0.8125      0.000000
     0.8130      0.000040
     0.8135      0.000070
     0.8140      0.000040
     0.8145      0.000060
     0.8150      0.000010
     0.8155      0.000010
     0.8160      0.000030
     0.8165      0.000000
     0.8170      0.000000
     0.8175      0.000000
     0.8180      0.000000
     0.8185      0.000000
     0.8190      0.000010
     0.8195      0.000000
     0.8200      0.000000
     0.8205      0.000000
     0.8210      0.000010
     0.8215      0.000020
     0.8220      0.000000
     0.8225      0.000050
     0.8230      0.000000
     0.8235      0.000010
     0.8240      0.000000
     0.8245      0.000030
     0.8250      0.000000
     0.8255      0.000110
     0.8260      0.000010
     0.8265      0.000060
     0.8270      0.000000
     0.8275      0.000030
     0.8280      0.000020
     0.8285      0.000040
     0.8290      0.000030
     0.8295      0.000000
     0.8300      0.000020
     0.8305      0.000000
     0.8310      0.000010
     0.8315      0.000010
     0.8320      0.000060
     0.8325      0.000010
     0.8330      0.000000
     0.8335      0.000000
     0.8340      0.000000
     0.8345      0.000050
     0.8350      0.000000
     0.8355      0.000000
     0.8360      0.000000
     0.8365      0.000000
     0.8370      0.000000
     0.8375      0.000000
     0.8380      0.000010
     0.8385      0.000020
     0.8390      0.000010
     0.8395      0.000030
     0.8400      0.000000
     0.8405      0.000010
     0.8410      0.000010
     0.8415      0.000000
     0.8420      0.000000
     0.8425      0.000000
     0.8430      0.000000
     0.8435      0.000010
     0.8440      0.000010
     0.8445      0.000040
     0.8450      0.000050
     0.8455      0.000020
     0.8460      0.000020
     0.8465      0.000000
     0.8470      0.000050
     0.8475      0.000040
     0.8480      0.000000
     0.8485      0.000000
     0.8490      0.000000
     0.8495      0.000000
     0.8500      0.000040
     0.8505      0.000040
     0.8510      0.000040
     0.8515      0.000070
     0.8520      0.000000
     0.8525      0.000060
     0.8530      0.000000
     0.8535      0.000000
     0.8540      0.000010
     0.8545      0.000000
     0.8550      0.000010
     0.8555      0.000000
     0.8560      0.000000
     0.8565      0.000000
     0.8570      0.000030
     0.8575      0.000020
     0.8580      0.000000
     0.8585      0.000030
     0.8590      0.000000
     0.8595      0.000010
     0.8600      0.000040
     0.8605      0.000080
     0.8610      0.000040
     0.8615      0.000020
     0.8620      0.000000
     0.8625      0.000050
     0.8630      0.000030
     0.8635      0.000020
     0.8640      0.000000
     0.8645      0.000000
     0.8650      0.000000
     0.8655      0.000020
     0.8660      0.000020
     0.8665      0.000020
     0.8670      0.000030
     0.8675      0.000000
     0.8680      0.000010
     0.8685      0.000020
     0.8690      0.000000
     0.8695      0.000000
     0.8700      0.000000
     0.8705      0.000020
     0.8710      0.000030
     0.8715      0.000060
     0.8720      0.000040
     0.8725      0.000030
     0.8730      0.000010
     0.8735      0.000030
     0.8740      0.000000
     0.8745      0.000000
     0.8750      0.000020
     0.8755      0.000020
     0.8760      0.000040
     0.8765      0.000000
     0.8770      0.000020
     0.8775      0.000000
     0.8780      0.000040
     0.8785      0.000020
     0.8790      0.000010
     0.8795      0.000000
     0.8800      0.000000
     0.8805      0.000070
     0.8810      0.000020
     0.8815      0.000020
     0.8820      0.000040
     0.8825      0.000010
     0.8830      0.000040
     0.8835      0.000020
     0.8840      0.000000
     0.8845      0.000020
     0.8850      0.000020
     0.8855      0.000020
     0.8860      0.000020
     0.8865      0.000030
     0.8870      0.000000
     0.8875      0.000030
     0.8880      0.000000
     0.8885      0.000000
     0.8890      0.000030
     0.8895      0.000040
     0.8900      0.000000
     0.8905      0.000030
     0.8910      0.000020
     0.8915      0.000070
     0.8920      0.000040
     0.8925      0.000030
     0.8930      0.000070
     0.8935      0.000070
     0.8940      0.000070
     0.8945      0.000050
     0.8950      0.000120
     0.8955      0.000110
     0.8960      0.000100
     0.8965      0.000140
     0.8970      0.000130
     0.8975      0.000060
     0.8980      0.000060
     0.8985      0.000030
     0.8990      0.000030
     0.8995      0.000010
     0.9000      0.000020
     0.9005      0.000000
     0.9010      0.000010
     0.9015      0.000030
     0.9020      0.000020
     0.9025      0.000000
     0.9030      0.000050
     0.9035      0.000010
     0.9040      0.000010
     0.9045      0.000000
     0.9050      0.000000
     0.9055      0.000010
     0.9060      0.000000
     0.9065      0.000000
     0.9070      0.000010
     0.9075      0.000030
     0.9080      0.000020
     0.9085      0.000010
     0.9090      0.000000
     0.9095      0.000020
     0.9100      0.000040
     0.9105      0.000020
     0.9110      0.000030
     0.9115      0.000000
     0.9120      0.000000
     0.9125      0.000000
     0.9130      0.000010
     0.9135      0.000000
     0.9140      0.000010
     0.9145      0.000020
     0.9150      0.000000
     0.9155      0.000000
     0.9160      0.000000
     0.9165      0.000020
     0.9170      0.000000
     0.9175      0.000000
     0.9180      0.000040
     0.9185      0.000000
     0.9190      0.000020
     0.9195      0.000000
     0.9200      0.000020
     0.9205      0.000000
     0.9210      0.000020
     0.9215      0.000000
     0.9220      0.000010
     0.9225      0.000000
     0.9230      0.000030
     0.9235      0.000020
     0.9240      0.000030
     0.9245      0.000020
     0.9250      0.000000
     0.9255      0.000000
     0.9260      0.000000
     0.9265      0.000000
     0.9270      0.000030
     0.9275      0.000000
     0.9280      0.000000
     0.9285      0.000010
     0.9290      0.000000
     0.9295      0.000000
     0.9300      0.000010
     0.9305      0.000000
     0.9310      0.000020
     0.9315      0.000000
     0.9320      0.000000
     0.9325      0.000000
     0.9330      0.000000
     0.9335      0.000010
     0.9340      0.000000
     0.9345      0.000030
     0.9350      0.000000
     0.9355      0.000010
     0.9360      0.000000
     0.9365      0.000000
     0.9370      0.000010
     0.9375      0.000020
     0.9380      0.000000
     0.9385      0.000000
     0.9390      0.000000
     0.9395      0.000000
     0.9400      0.000000
     0.9405      0.000000
     0.9410      0.000010
     0.9415      0.000000
     0.9420      0.000000
     0.9425      0.000010
     0.9430      0.000000
     0.9435      0.000000
     0.9440      0.000000
     0.9445      0.000010
     0.9450      0.000000
     0.9455      0.000010
     0.9460      0.000030
     0.9465      0.000030
     0.9470      0.000020
     0.9475      0.000000
     0.9480      0.000010
     0.9485      0.000040
     0.9490      0.000010
     0.9495      0.000010
     0.9500      0.000050
     0.9505      0.000050
     0.9510      0.000090
     0.9515      0.000100
     0.9520      0.000150
     0.9525      0.000150
     0.9530      0.000140
     0.9535      0.000180
     0.9540      0.000140
     0.9545      0.000120
     0.9550      0.000130
     0.9555      0.000130
     0.9560      0.000090
     0.9565      0.000100
     0.9570      0.000070
     0.9575      0.000080
     0.9580      0.000080
     0.9585      0.000070
     0.9590      0.000060
     0.9595      0.000050
     0.9600      0.000030
     0.9605      0.000040
     0.9610      0.000040
     0.9615      0.000020
     0.9620      0.000060
     0.9625      0.000000
     0.9630      0.000040
     0.9635      0.000010
     0.9640      0.000030
     0.9645      0.000050
     0.9650      0.000010
     0.9655      0.000040
     0.9660      0.000040
     0.9665      0.000030
     0.9670      0.000030
     0.9675      0.000030
     0.9680      0.000010
     0.9685      0.000030
     0.9690      0.000000
     0.9695      0.000000
     0.9700      0.000030
     0.9705      0.000010
     0.9710      0.000040
     0.9715      0.000010
     0.9720      0.000040
     0.9725      0.000000
     0.9730      0.000000
     0.9735      0.000010
     0.9740      0.000000
     0.9745      0.000030
     0.9750      0.000000
     0.9755      0.000000
     0.9760      0.000000
     0.9765      0.000000
     0.9770      0.000020
     0.9775      0.000000
     0.9780      0.000010
     0.9785      0.000010
     0.9790      0.000010
     0.9795      0.000000
     0.9800      0.000000
     0.9805      0.000000
     0.9810      0.000020
     0.9815      0.000020
     0.9820      0.000020
     0.9825      0.000000
     0.9830      0.000020
     0.9835      0.000010
     0.9840      0.000000
     0.9845      0.000010
     0.9850      0.000000
     0.9855      0.000000
     0.9860      0.000000
     0.9865      0.000000
     0.9870      0.000000
     0.9875      0.000000
     0.9880      0.000000
     0.9885      0.000000
     0.9890      0.000000
     0.9895      0.000000
     0.9900      0.000000
     0.9905      0.000010
     0.9910      0.000010
     0.9915      0.000000
     0.9920      0.000000
     0.9925      0.000020
     0.9930      0.000010
     0.9935      0.000000
     0.9940      0.000000
     0.9945      0.000000
     0.9950      0.000000
     0.9955      0.000020
     0.9960      0.000010
     0.9965      0.000010
     0.9970      0.000000
     0.9975      0.000000
     0.9980      0.000010
     0.9985      0.000030
     0.9990      0.000000
     0.9995      0.000020
     1.0000      0.000020
     1.0005      0.000020
     1.0010      0.000020
     1.0015      0.000000
     1.0020      0.000010
     1.0025      0.000030
     1.0030      0.000000
     1.0035      0.000020
     1.0040      0.000000
     1.0045      0.000020
     1.0050      0.000010
     1.0055      0.000020
     1.0060      0.000010
     1.0065      0.000000
     1.0070      0.000010
     1.0075      0.000000
     1.0080      0.000040
     1.0085      0.000000
     1.0090      0.000020
     1.0095      0.000010
     1.0100      0.000020
     1.0105      0.000000
     1.0110      0.000000
     1.0115      0.000020
     1.0120      0.000020
     1.0125      0.000000
     1.0130      0.000020
     1.0135      0.000010
     1.0140      0.000020
     1.0145      0.000000
     1.0150      0.000030
     1.0155      0.000020
     1.0160      0.000000
     1.0165      0.000010
     1.0170      0.000000
     1.0175      0.000010
     1.0180      0.000000
     1.0185      0.000010
     1.0190      0.000000
     1.0195      0.000010
     1.0200      0.000000
     1.0205      0.000000
     1.0210      0.000000
     1.0215      0.000020
     1.0220      0.000010
     1.0225      0.000020
     1.0230      0.000010
     1.0235      0.000020
     1.0240      0.000020
     1.0245      0.000010
     1.0250      0.000030
     1.0255      0.000000
     1.0260      0.000000
     1.0265      0.000000
     1.0270      0.000010
     1.0275      0.000010
     1.0280      0.000010
     1.0285      0.000040
     1.0290      0.000010
     1.0295      0.000010
     1.0300      0.000010
     1.0305      0.000010
     1.0310      0.000010
     1.0315      0.000030
     1.0320      0.000010
     1.0325      0.000020
     1.0330      0.000020
     1.0335      0.000020
     1.0340      0.000020
     1.0345      0.000020
     1.0350      0.000020
     1.0355      0.000010
     1.0360      0.000040
     1.0365      0.000000
     1.0370      0.000000
     1.0375      0.000020
     1.0380      0.000020
     1.0385      0.000020
     1.0390      0.000080
     1.0395      0.000020
     1.0400      0.000040
     1.0405      0.000020
     1.0410      0.000010
     1.0415      0.000050
     1.0420      0.000000
     1.0425      0.000010
     1.0430      0.000020
     1.0435      0.000000
     1.0440      0.000010
     1.0445      0.000010
     1.0450      0.000000
     1.0455      0.000030
     1.0460      0.000020
     1.0465      0.000050
     1.0470      0.000020
     1.0475      0.000020
     1.0480      0.000000
     1.0485      0.000020
     1.0490      0.000030
     1.0495      0.000030
     1.0500      0.000000
     1.0505      0.000040
     1.0510      0.000010
     1.0515      0.000030
     1.0520      0.000010
     1.0525      0.000020
     1.0530      0.000010
     1.0535      0.000010
     1.0540      0.000000
     1.0545      0.000020
     1.0550      0.000010
     1.0555      0.000030
     1.0560      0.000000
     1.0565      0.000000
     1.0570      0.000010
     1.0575      0.000010
     1.0580      0.000000
     1.0585      0.000000
     1.0590      0.000060
     1.0595      0.000030
     1.0600      0.000010
     1.0605      0.000020
     1.0610      0.000020
     1.0615      0.000040
     1.0620      0.000050
     1.0625      0.000000
     1.0630      0.000010
     1.0635      0.000000
     1.0640      0.000010
     1.0645      0.000040
     1.0650      0.000040
     1.0655      0.000040
     1.0660      0.000010
     1.0665      0.000040
     1.0670      0.000000
     1.0675      0.000030
     1.0680      0.000060
     1.0685      0.000060
     1.0690      0.000020
     1.0695      0.000030
     1.0700      0.000030
     1.0705      0.000030
     1.0710      0.000040
     1.0715      0.000030
     1.0720      0.000050
     1.0725      0.000000
     1.0730      0.000000
     1.0735      0.000010
     1.0740      0.000040
     1.0745      0.000000
     1.0750      0.000000
     1.0755      0.000060
     1.0760      0.000000
     1.0765      0.000040
     1.0770      0.000010
     1.0775      0.000000
     1.0780      0.000040
     1.0785      0.000040
     1.0790      0.000030
     1.0795      0.000010
     1.0800      0.000000
     1.0805      0.000000
     1.0810      0.000010
     1.0815      0.000000
     1.0820      0.000000
     1.0825      0.000020
     1.0830      0.000000
     1.0835      0.000000
     1.0840      0.000010
     1.0845      0.000060
     1.0850      0.000000
     1.0855      0.000000
     1.0860      0.000050
     1.0865      0.000000
     1.0870      0.000000
     1.0875      0.000000
     1.0880      0.000010
     1.0885      0.000000
     1.0890      0.000000
     1.0895      0.000000
     1.0900      0.000000
     1.0905      0.000000
     1.0910      0.000010
     1.0915      0.000000
     1.0920      0.000000
     1.0925      0.000000
     1.0930      0.000000
     1.0935      0.000010
     1.0940      0.000000
     1.0945      0.000000
     1.0950      0.000000
     1.0955      0.000000
     1.0960      0.000000
     1.0965      0.000000
     1.0970      0.000000
     1.0975      0.000000
     1.0980      0.000000
     1.0985      0.000000
     1.0990      0.000000
     1.0995      0.000000
     1.1000      0.000010
     1.1005      0.000010
     1.1010      0.000020
     1.1015      0.000000
     1.1020      0.000000
     1.1025      0.000000
     1.1030      0.000010
     1.1035      0.000000
     1.1040      0.000000
     1.1045      0.000000
     1.1050      0.000000
     1.1055      0.000000
     1.1060      0.000000
     1.1065      0.000000
     1.1070      0.000000
     1.1075      0.000000
     1.1080      0.000020
     1.1085      0.000000
     1.1090      0.000000
     1.1095      0.000000
     1.1100      0.000000
     1.1105      0.000000
     1.1110      0.000000
     1.1115      0.000000
     1.1120      0.000400
     1.1125      0.001570
     1.1130      0.000530
     1.1135      0.000000
     1.1140      0.000000
     1.1145      0.000000
     1.1150      0.000000
     1.1155      0.000000
     1.1160      0.000080
     1.1165      0.000000
     1.1170      0.000000
     1.1175      0.000190
     1.1180      0.000740
     1.1185      0.000490
     1.1190      0.000960
     1.1195      0.000000
     1.1200      0.000000
     1.1205      0.000000
     1.1210      0.000000
     1.1215      0.000000
     1.1220      0.000010
     1.1225      0.000000
     1.1230      0.000000
     1.1235      0.000000
     1.1240      0.000000
     1.1245      0.000000
     1.1250      0.000000
     1.1255      0.000000
     1.1260      0.000000
     1.1265      0.000000
     1.1270      0.000000
     1.1275      0.000000
     1.1280      0.000000
     1.1285      0.000000
     1.1290      0.000000
     1.1295      0.000000
     1.1300      0.000000
     1.1305      0.000000
     1.1310      0.000000
     1.1315      0.000000
     1.1320      0.000000
     1.1325      0.000000
     1.1330      0.000000
     1.1335      0.000000
     1.1340      0.000000
     1.1345      0.000000
     1.1350      0.000000
     1.1355      0.000000
     1.1360      0.000000
     1.1365      0.000000
     1.1370      0.000000
     1.1375      0.000000
     1.1380      0.000000
     1.1385      0.000000
     1.1390      0.000000
     1.1395      0.000000
     1.1400      0.000000
     1.1405      0.000000
     1.1410      0.000000
     1.1415      0.000000
     1.1420      0.000000
     1.1425      0.000000
     1.1430      0.000000
     1.1435      0.000000
     1.1440      0.000000
     1.1445      0.000000
     1.1450      0.000000
     1.1455      0.000000
     1.1460      0.000000
     1.1465      0.000000
     1.1470      0.000000
     1.1475      0.000000
     1.1480      0.000000
     1.1485      0.000000
     1.1490      0.000000
     1.1495      0.000000
     1.1500      0.000000
     1.1505      0.000000
     1.1510      0.000000
     1.1515      0.000000
     1.1520      0.000000
     1.1525      0.000000
     1.1530      0.000000
     1.1535      0.000000
     1.1540      0.000000
     1.1545      0.000000
     1.1550      0.000000
     1.1555      0.000000
     1.1560      0.000000
     1.1565      0.000000
     1.1570      0.000000
     1.1575      0.000000
     1.1580      0.000000
     1.1585      0.000000
     1.1590      0.000730
     1.1595      0.000320
     1.1600      0.002520
     1.1605      0.003070
     1.1610      0.008410
     1.1615      0.012550
     1.1620      0.017570
     1.1625      0.027930
     1.1630      0.038900
     1.1635      0.056980
     1.1640      0.080580
     1.1645      0.117770
     1.1650      0.168130
     1.1655      0.234690
     1.1660      0.325500
     1.1665      0.432470
     1.1670      0.557330
     1.1675      0.682720
     1.1680      0.793860
     1.1685      0.880770
     1.1690      0.935520
     1.1695      0.968830
     1.1700      0.981390
     1.1705      0.985460
     1.1710      0.988370
     1.1715      0.980040
     1.1720      0.977500
     1.1725      0.977120
     1.1730      0.975280
     1.1735      0.973540
     1.1740      0.973780
     1.1745      0.971910
     1.1750      0.972530
     1.1755      0.973850
     1.1760      0.972030
     1.1765      0.971220
     1.1770      0.974920
     1.1775      0.974000
     1.1780      0.974270
     1.1785      0.975420
     1.1790      0.974870
     1.1795      0.978450
     1.1800      0.979510
     1.1805      0.982180
     1.1810      0.987270
     1.1815      0.988270
     1.1820      0.988890
     1.1825      0.987320
     1.1830      0.989240
     1.1835      0.992040
     1.1840      0.994080
     1.1845      0.993890
     1.1850      0.995050
     1.1855      0.996220
     1.1860      1.000030
     1.1865      0.997810
     1.1870      0.999770
     1.1875      0.999490
     1.1880      0.997420
     1.1885      1.000020
     1.1890      0.999210
     1.1895      0.996840
     1.1900      0.996440
     1.1905      0.998480
     1.1910      0.996930
     1.1915      0.995010
     1.1920      0.998150
     1.1925      0.999960
     1.1930      1.000310
     1.1935      0.997290
     1.1940      1.000980
     1.1945      0.997090
     1.1950      0.998880
     1.1955      0.999810
     1.1960      0.997790
     1.1965      0.999880
     1.1970      0.994320
     1.1975      0.995160
     1.1980      0.996990
     1.1985      0.999160
     1.1990      0.998300
     1.1995      0.998440
     1.2000      0.999800
     1.2005      1.001590
     1.2010      0.999070
     1.2015      1.001620
     1.2020      1.000510
     1.2025      1.003960
     1.2030      1.004110
     1.2035      1.005430
     1.2040      1.003760
     1.2045      1.003050
     1.2050      1.002060
     1.2055      1.002170
     1.2060      0.999290
     1.2065      0.999550
     1.2070      0.995930
     1.2075      0.992410
     1.2080      0.988920
     1.2085      0.981630
     1.2090      0.974870
     1.2095      0.972460
     1.2100      0.969440
     1.2105      0.963890
     1.2110      0.955980
     1.2115      0.952110
     1.2120      0.951300
     1.2125      0.947490
     1.2130      0.951300
     1.2135      0.954520
     1.2140      0.960940
     1.2145      0.972820
     1.2150      0.981900
     1.2155      0.991350
     1.2160      0.990100
     1.2165      0.977850
     1.2170      0.938860
     1.2175      0.869440
     1.2180      0.763590
     1.2185      0.633240
     1.2190      0.498980
     1.2195      0.377560
     1.2200      0.280090
     1.2205      0.204720
     1.2210      0.149730
     1.2215      0.111560
     1.2220      0.081630
     1.2225      0.061550
     1.2230      0.049120
     1.2235      0.037240
     1.2240      0.031270
     1.2245      0.026580
     1.2250      0.022380
     1.2255      0.022280
     1.2260      0.017180
     1.2265      0.015070
     1.2270      0.014190
     1.2275      0.013570
     1.2280      0.012050
     1.2285      0.011640
     1.2290      0.012420
     1.2295      0.011310
     1.2300      0.010080
     1.2305      0.008560
     1.2310      0.009560
     1.2315      0.011170
     1.2320      0.010000
     1.2325      0.007330
     1.2330      0.008980
     1.2335      0.008770
     1.2340      0.009220
     1.2345      0.008790
     1.2350      0.009260
     1.2355      0.008990
     1.2360      0.008160
     1.2365      0.009560
     1.2370      0.009130
     1.2375      0.010760
     1.2380      0.008660
     1.2385      0.008740
     1.2390      0.008700
     1.2395      0.009130
     1.2400      0.008550
     1.2405      0.008880
     1.2410      0.007770
     1.2415      0.007400
     1.2420      0.007080
     1.2425      0.006200
     1.2430      0.008220
     1.2435      0.008780
     1.2440      0.006900
     1.2445      0.008030
     1.2450      0.008450
     1.2455      0.009520
     1.2460      0.007860
     1.2465      0.007470
     1.2470      0.008680
     1.2475      0.008390
     1.2480      0.008040
     1.2485      0.008520
     1.2490      0.008170
     1.2495      0.008960
     1.2500      0.008310
     1.2505      0.008400
     1.2510      0.008510
     1.2515      0.009140
     1.2520      0.010060
     1.2525      0.009420
     1.2530      0.008370
     1.2535      0.010370
     1.2540      0.009650
     1.2545      0.009220
     1.2550      0.008710
     1.2555      0.007100
     1.2560      0.008320
     1.2565      0.008790
     1.2570      0.008210
     1.2575      0.008140
     1.2580      0.008980
     1.2585      0.007670
     1.2590      0.010130
     1.2595      0.008910
     1.2600      0.008460
     1.2605      0.007030
     1.2610      0.006720
     1.2615      0.008840
     1.2620      0.008250
     1.2625      0.005930
     1.2630      0.007800
     1.2635      0.010550
     1.2640      0.007980
     1.2645      0.008210
     1.2650      0.007900
     1.2655      0.007490
     1.2660      0.006630
     1.2665      0.006530
     1.2670      0.006460
     1.2675      0.004840
     1.2680      0.003210
     1.2685      0.004040
     1.2690      0.004070
     1.2695      0.002950
     1.2700      0.002600
     1.2705      0.001040
     1.2710      0.001900
     1.2715      0.002000
     1.2720      0.002980
     1.2725      0.001640
     1.2730      0.001340
     1.2735      0.001610
     1.2740      0.001320
     1.2745      0.001450
     1.2750      0.000660
     1.2755      0.000280
     1.2760      0.000660
     1.2765      0.001300
     1.2770      0.000530
     1.2775      0.001530
     1.2780      0.001620
     1.2785      0.000130
     1.2790      0.000040
     1.2795      0.001960
     1.2800      0.002100
     1.2805      0.001010
     1.2810      0.002000
     1.2815      0.001330
     1.2820      0.000330
     1.2825      0.000920
     1.2830      0.000000
     1.2835      0.001100
     1.2840      0.001050
     1.2845      0.002110
     1.2850      0.002300
     1.2855      0.000510
     1.2860      0.000680
     1.2865      0.000810
     1.2870      0.000010
     1.2875      0.001540
     1.2880      0.000390
     1.2885      0.000000
     1.2890      0.000810
     1.2895      0.002140
     1.2900      0.001040
     1.2905      0.001330
     1.2910      0.000010
     1.2915      0.001620
     1.2920      0.001550
     1.2925      0.001130
     1.2930      0.000000
     1.2935      0.000560
     1.2940      0.000620
     1.2945      0.000200
     1.2950      0.000530
     1.2955      0.002650
     1.2960      0.000440
     1.2965      0.002520
     1.2970      0.001440
     1.2975      0.001750
     1.2980      0.001130
     1.2985      0.000180
     1.2990      0.000390
     1.2995      0.000080
     1.3000      0.000000
     1.3005      0.002300
     1.3010      0.001380
     1.3015      0.000000
     1.3020      0.000000
     1.3025      0.000730
     1.3030      0.000510
     1.3035      0.000940
     1.3040      0.000850
     1.3045      0.000110
     1.3050      0.000660
     1.3055      0.000570
     1.3060      0.000920
     1.3065      0.000520
     1.3070      0.000140
     1.3075      0.000000
     1.3080      0.001640
     1.3085      0.000490
     1.3090      0.000310
     1.3095      0.000750
     1.3100      0.001160
     1.3105      0.000600
     1.3110      0.000000
     1.3115      0.000320
     1.3120      0.000210
     1.3125      0.000400
     1.3130      0.000000
     1.3135      0.000900
     1.3140      0.002000
     1.3145      0.001150
     1.3150      0.000820
     1.3155      0.000890
     1.3160      0.000030
     1.3165      0.003510
     1.3170      0.001460
     1.3175      0.000870
     1.3180      0.000000
     1.3185      0.001100
     1.3190      0.000110
     1.3195      0.001600
     1.3200      0.001050
     1.3205      0.000410
     1.3210      0.000230
     1.3215      0.001820
     1.3220      0.000000
     1.3225      0.000000
     1.3230      0.000000
     1.3235      0.000230
     1.3240      0.000000
     1.3245      0.000330
     1.3250      0.000000
     1.3255      0.001430
     1.3260      0.000790
     1.3265      0.000010
     1.3270      0.000670
     1.3275      0.000740
     1.3280      0.000360
     1.3285      0.000080
     1.3290      0.000070
     1.3295      0.000710
     1.3300      0.000670
     1.3305      0.000570
     1.3310      0.001020
     1.3315      0.000170
     1.3320      0.000000
     1.3325      0.000150
     1.3330      0.000580
     1.3335      0.000370
     1.3340      0.000010
     1.3345      0.001260
     1.3350      0.001060
     1.3355      0.001080
     1.3360      0.000340
     1.3365      0.000950
     1.3370      0.000260
     1.3375      0.000000
     1.3380      0.000000
     1.3385      0.000640
     1.3390      0.000000
     1.3395      0.000000
     1.3400      0.000160
     1.3405      0.000890
     1.3410      0.000740
     1.3415      0.000000
     1.3420      0.000240
     1.3425      0.000070
     1.3430      0.000000
     1.3435      0.000530
     1.3440      0.000000
     1.3445      0.001240
     1.3450      0.000770
     1.3455      0.000930
     1.3460      0.000000
     1.3465      0.000250
     1.3470      0.000910
     1.3475      0.000000
     1.3480      0.001310
     1.3485      0.000190
     1.3490      0.000000
     1.3495      0.000000
     1.3500      0.000170
     1.3505      0.000000
     1.3510      0.000000
     1.3515      0.000630
     1.3520      0.000130
     1.3525      0.000270
     1.3530      0.000890
     1.3535      0.000210
     1.3540      0.000000
     1.3545      0.000600
     1.3550      0.000000
     1.3555      0.000500
     1.3560      0.001180
     1.3565      0.000000
     1.3570      0.000020
     1.3575      0.000000
     1.3580      0.000000
     1.3585      0.000360
     1.3590      0.000000
     1.3595      0.000000
     1.3600      0.000000
     1.3605      0.000100
     1.3610      0.000520
     1.3615      0.000000
     1.3620      0.000000
     1.3625      0.000000
     1.3630      0.000000
     1.3635      0.000350
     1.3640      0.000400
     1.3645      0.000000
     1.3650      0.000000
     1.3655      0.000000
     1.3660      0.000940
     1.3665      0.000220
     1.3670      0.000000
     1.3675      0.000000
     1.3680      0.000100
     1.3685      0.000000
     1.3690      0.000060
     1.3695      0.000430
     1.3700      0.000000
     1.3705      0.000240
     1.3710      0.000030
     1.3715      0.000000
     1.3720      0.000000
     1.3725      0.000000
     1.3730      0.000000
     1.3735      0.000260
     1.3740      0.000000
     1.3745      0.000070
     1.3750      0.000140
     1.3755      0.000520
     1.3760      0.001020
     1.3765      0.000330
     1.3770      0.000470
     1.3775      0.001320
     1.3780      0.001070
     1.3785      0.000700
     1.3790      0.000210
     1.3795      0.000350
     1.3800      0.000790
     1.3805      0.000680
     1.3810      0.000960
     1.3815      0.000000
     1.3820      0.000000
     1.3825      0.000130
     1.3830      0.000180
     1.3835      0.000010
     1.3840      0.000390
     1.3845      0.000000
     1.3850      0.000700
     1.3855      0.000000
     1.3860      0.000000
     1.3865      0.000220
     1.3870      0.000010
     1.3875      0.000680
     1.3880      0.000140
     1.3885      0.000240
     1.3890      0.000000
     1.3895      0.000780
     1.3900      0.000000
     1.3905      0.000000
     1.3910      0.000000
     1.3915      0.000000
     1.3920      0.000610
     1.3925      0.000870
     1.3930      0.000110
     1.3935      0.000760
     1.3940      0.000000
     1.3945      0.000200
     1.3950      0.000000
     1.3955      0.000970
     1.3960      0.000040
     1.3965      0.000160
     1.3970      0.000110
     1.3975      0.000550
     1.3980      0.000000
     1.3985      0.000000
     1.3990      0.000440
     1.3995      0.000650
     1.4000      0.000650
     1.4005      0.000000
     1.4010      0.000000
     1.4015      0.000660
     1.4020      0.000510
     1.4025      0.000000
     1.4030      0.001670
     1.4035      0.001820
     1.4040      0.000000
     1.4045      0.000000
     1.4050      0.001630
     1.4055      0.000800
     1.4060      0.000700
     1.4065      0.000260
     1.4070      0.000440
     1.4075      0.000670
     1.4080      0.000340
     1.4085      0.000000
     1.4090      0.001410
     1.4095      0.000280
     1.4100      0.000310
     1.4105      0.000860
     1.4110      0.000120
     1.4115      0.000440
     1.4120      0.000150
     1.4125      0.000000
     1.4130      0.000150
     1.4135      0.000490
     1.4140      0.000320
     1.4145      0.000000
     1.4150      0.000430
     1.4155      0.000360
     1.4160      0.000590
     1.4165      0.000720
     1.4170      0.001970
     1.4175      0.000470
     1.4180      0.000000
     1.4185      0.000000
     1.4190      0.000000
     1.4195      0.000000
     1.4200      0.000000
     1.4205      0.001240
     1.4210      0.000690
     1.4215      0.000000
     1.4220      0.001250
     1.4225      0.000420
     1.4230      0.000310
     1.4235      0.000000
     1.4240      0.000000
     1.4245      0.000000
     1.4250      0.000280
     1.4255      0.000360
     1.4260      0.000310
     1.4265      0.000370
     1.4270      0.000350
     1.4275      0.000220
     1.4280      0.000030
     1.4285      0.000000
     1.4290      0.000280
     1.4295      0.000000
     1.4300      0.000000
     1.4305      0.000000
     1.4310      0.000130
     1.4315      0.000070
     1.4320      0.001000
     1.4325      0.000000
     1.4330      0.000190
     1.4335      0.000000
     1.4340      0.000470
     1.4345      0.000000
     1.4350      0.000000
     1.4355      0.000510
     1.4360      0.000000
     1.4365      0.000480
     1.4370      0.000720
     1.4375      0.000210
     1.4380      0.000000
     1.4385      0.000410
     1.4390      0.000080
     1.4395      0.000660
     1.4400      0.000220
     1.4405      0.000050
     1.4410      0.000000
     1.4415      0.000190
     1.4420      0.001130
     1.4425      0.001040
     1.4430      0.000370
     1.4435      0.000090
     1.4440      0.000050
     1.4445      0.000610
     1.4450      0.000000
     1.4455      0.000000
     1.4460      0.000110
     1.4465      0.000000
     1.4470      0.000270
     1.4475      0.000370
     1.4480      0.000000
     1.4485      0.000000
     1.4490      0.000390
     1.4495      0.000450
     1.4500      0.000490
     1.4505      0.000000
     1.4510      0.000000
     1.4515      0.001080
     1.4520      0.000090
     1.4525      0.000000
     1.4530      0.000000
     1.4535      0.000370
     1.4540      0.000000
     1.4545      0.000000
     1.4550      0.000000
     1.4555      0.000000
     1.4560      0.000000
     1.4565      0.000230
     1.4570      0.000170
     1.4575      0.000000
     1.4580      0.000020
     1.4585      0.000000
     1.4590      0.000000
     1.4595      0.000180
     1.4600      0.000000
     1.4605      0.000000
     1.4610      0.000000
     1.4615      0.000300
     1.4620      0.000000
     1.4625      0.000230
     1.4630      0.000170
     1.4635      0.000610
     1.4640      0.000520
     1.4645      0.001600
     1.4650      0.000360
     1.4655      0.000140
     1.4660      0.000410
     1.4665      0.000360
     1.4670      0.000340
     1.4675      0.000040
     1.4680      0.000990
     1.4685      0.000590
     1.4690      0.000410
     1.4695      0.000760
     1.4700      0.001010
     1.4705      0.000000
     1.4710      0.000950
     1.4715      0.001210
     1.4720      0.000000
     1.4725      0.000000
     1.4730      0.000100
     1.4735      0.000340
     1.4740      0.000980
     1.4745      0.000990
     1.4750      0.000100
     1.4755      0.001070
     1.4760      0.000010
     1.4765      0.000290
     1.4770      0.000730
     1.4775      0.000000
     1.4780      0.000100
     1.4785      0.000050
     1.4790      0.000530
     1.4795      0.001320
     1.4800      0.000890
     1.4805      0.000000
     1.4810      0.000220
     1.4815      0.000360
     1.4820      0.000020
     1.4825      0.000000
     1.4830      0.000000
     1.4835      0.000000
     1.4840      0.000000
     1.4845      0.000860
     1.4850      0.000000
     1.4855      0.000000
     1.4860      0.000000
     1.4865      0.000000
     1.4870      0.000640
     1.4875      0.000330
     1.4880      0.000620
     1.4885      0.001100
     1.4890      0.000850
     1.4895      0.000390
     1.4900      0.001060
     1.4905      0.000440
     1.4910      0.001280
     1.4915      0.001090
     1.4920      0.000270
     1.4925      0.000890
     1.4930      0.000810
     1.4935      0.000000
     1.4940      0.000000
     1.4945      0.001260
     1.4950      0.000930
     1.4955      0.000000
     1.4960      0.000010
     1.4965      0.000000
     1.4970      0.000300
     1.4975      0.000870
     1.4980      0.000170
     1.4985      0.000000
     1.4990      0.000000
     1.4995      0.000000
     1.5000      0.000040
     1.5005      0.000000
     1.5010      0.000000
     1.5015      0.000020
     1.5020      0.000150
     1.5025      0.000000
     1.5030      0.000180
     1.5035      0.000480
     1.5040      0.000000
     1.5045      0.000290
     1.5050      0.000290
     1.5055      0.000290
     1.5060      0.000170
     1.5065      0.000000
     1.5070      0.000000
     1.5075      0.000330
     1.5080      0.000000
     1.5085      0.001010
     1.5090      0.001500
     1.5095      0.000820
     1.5100      0.002150
     1.5105      0.002260
     1.5110      0.001810
     1.5115      0.001540
     1.5120      0.003120
     1.5125      0.002190
     1.5130      0.002160
     1.5135      0.003790
     1.5140      0.003960
     1.5145      0.003580
     1.5150      0.003250
     1.5155      0.003010
     1.5160      0.003310
     1.5165      0.004020
     1.5170      0.003980
     1.5175      0.004740
     1.5180      0.005020
     1.5185      0.004380
     1.5190      0.004780
     1.5195      0.003390
     1.5200      0.002730
     1.5205      0.004020
     1.5210      0.002640
     1.5215      0.003450
     1.5220      0.004810
     1.5225      0.003850
     1.5230      0.003160
     1.5235      0.003580
     1.5240      0.004090
     1.5245      0.004490
     1.5250      0.005110
     1.5255      0.004970
     1.5260      0.003790
     1.5265      0.004090
     1.5270      0.003900
     1.5275      0.003790
     1.5280      0.005090
     1.5285      0.004340
     1.5290      0.003960
     1.5295      0.003650
     1.5300      0.003360
     1.5305      0.003430
     1.5310      0.004370
     1.5315      0.004120
     1.5320      0.005130
     1.5325      0.004180
     1.5330      0.003560
     1.5335      0.004000
     1.5340      0.004990
     1.5345      0.004600
     1.5350      0.004840
     1.5355      0.004380
     1.5360      0.004000
     1.5365      0.003750
     1.5370      0.003550
     1.5375      0.003770
     1.5380      0.004230
     1.5385      0.003970
     1.5390      0.003980
     1.5395      0.004180
     1.5400      0.003630
     1.5405      0.004520
     1.5410      0.003630
     1.5415      0.004090
     1.5420      0.003980
     1.5425      0.002970
     1.5430      0.003950
     1.5435      0.003420
     1.5440      0.004000
     1.5445      0.004890
     1.5450      0.004040
     1.5455      0.004100
     1.5460      0.004550
     1.5465      0.003990
     1.5470      0.003780
     1.5475      0.003190
     1.5480      0.003320
     1.5485      0.003610
     1.5490      0.004560
     1.5495      0.003360
     1.5500      0.004450
     1.5505      0.004100
     1.5510      0.003620
     1.5515      0.004400
     1.5520      0.004480
     1.5525      0.003730
     1.5530      0.003850
     1.5535      0.004720
     1.5540      0.004660
     1.5545      0.003600
     1.5550      0.004330
     1.5555      0.003550
     1.5560      0.004010
     1.5565      0.003410
     1.5570      0.003890
     1.5575      0.003330
     1.5580      0.003190
     1.5585      0.004020
     1.5590      0.003620
     1.5595      0.004200
     1.5600      0.003380
     1.5605      0.005370
     1.5610      0.004860
     1.5615      0.005030
     1.5620      0.004440
     1.5625      0.004070
     1.5630      0.004470
     1.5635      0.003890
     1.5640      0.003770
     1.5645      0.003600
     1.5650      0.003860
     1.5655      0.003620
     1.5660      0.003200
     1.5665      0.003630
     1.5670      0.003380
     1.5675      0.003860
     1.5680      0.004390
     1.5685      0.004360
     1.5690      0.004060
     1.5695      0.003210
     1.5700      0.002740
     1.5705      0.003720
     1.5710      0.003550
     1.5715      0.003570
     1.5720      0.003520
     1.5725      0.003550
     1.5730      0.003490
     1.5735      0.003800
     1.5740      0.003910
     1.5745      0.003460
     1.5750      0.003220
     1.5755      0.004010
     1.5760      0.004470
     1.5765      0.004350
     1.5770      0.002590
     1.5775      0.003240
     1.5780      0.004300
     1.5785      0.003770
     1.5790      0.003960
     1.5795      0.004000
     1.5800      0.004220
     1.5805      0.003990
     1.5810      0.003980
     1.5815      0.004610
     1.5820      0.004150
     1.5825      0.004310
     1.5830      0.003630
     1.5835      0.003640
     1.5840      0.003260
     1.5845      0.003500
     1.5850      0.003810
     1.5855      0.003030
     1.5860      0.002470
     1.5865      0.003160
     1.5870      0.003290
     1.5875      0.003510
     1.5880      0.003160
     1.5885      0.003400
     1.5890      0.003350
     1.5895      0.004150
     1.5900      0.004230
     1.5905      0.003640
     1.5910      0.003600
     1.5915      0.004210
     1.5920      0.003480
     1.5925      0.003930
     1.5930      0.004260
     1.5935      0.003820
     1.5940      0.004080
     1.5945      0.003800
     1.5950      0.003990
     1.5955      0.004430
     1.5960      0.003140
     1.5965      0.003460
     1.5970      0.004260
     1.5975      0.002780
     1.5980      0.002950
     1.5985      0.003430
     1.5990      0.003590
     1.5995      0.002610
     1.6000      0.002760
     1.6005      0.002150
     1.6010      0.001780
     1.6015      0.001870
     1.6020      0.000980
     1.6025      0.001120
     1.6030      0.000460
     1.6035      0.000510
     1.6040      0.001250
     1.6045      0.000190
     1.6050      0.000070
     1.6055      0.000730
     1.6060      0.000160
     1.6065      0.000000
     1.6070      0.000220
     1.6075      0.000000
     1.6080      0.000140
     1.6085      0.000410
     1.6090      0.000460
     1.6095      0.000080
     1.6100      0.000000
     1.6105      0.000000
     1.6110      0.000000
     1.6115      0.000000
     1.6120      0.000150
     1.6125      0.000020
     1.6130      0.000260
     1.6135      0.000500
     1.6140      0.000340
     1.6145      0.000020
     1.6150      0.000000
     1.6155      0.000050
     1.6160      0.000000
     1.6165      0.000230
     1.6170      0.000520
     1.6175      0.000000
     1.6180      0.000000
     1.6185      0.000090
     1.6190      0.000560
     1.6195      0.000480
     1.6200      0.000050
     1.6205      0.000130
     1.6210      0.000370
     1.6215      0.000100
     1.6220      0.000240
     1.6225      0.000740
     1.6230      0.000350
     1.6235      0.000000
     1.6240      0.000020
     1.6245      0.000960
     1.6250      0.000000
     1.6255      0.000000
     1.6260      0.000090
     1.6265      0.000010
     1.6270      0.000330
     1.6275      0.000510
     1.6280      0.000590
     1.6285      0.000430
     1.6290      0.000000
     1.6295      0.000000
     1.6300      0.000460
     1.6305      0.000330
     1.6310      0.000000
     1.6315      0.000170
     1.6320      0.000410
     1.6325      0.000210
     1.6330      0.000000
     1.6335      0.000320
     1.6340      0.000300
     1.6345      0.000660
     1.6350      0.000130
     1.6355      0.001120
     1.6360      0.000050
     1.6365      0.000360
     1.6370      0.000760
     1.6375      0.000050
     1.6380      0.000050
     1.6385      0.000000
     1.6390      0.000040
     1.6395      0.000580
     1.6400      0.000350
     1.6405      0.000000
     1.6410      0.000010
     1.6415      0.000260
     1.6420      0.000000
     1.6425      0.000000
     1.6430      0.000010
     1.6435      0.000000
     1.6440      0.000530
     1.6445      0.000550
     1.6450      0.000780
     1.6455      0.000380
     1.6460      0.001370
     1.6465      0.000580
     1.6470      0.000650
     1.6475      0.000090
     1.6480      0.000000
     1.6485      0.000100
     1.6490      0.000410
     1.6495      0.000290
     1.6500      0.000390
     1.6505      0.000000
     1.6510      0.000220
     1.6515      0.000470
     1.6520      0.000150
     1.6525      0.000000
     1.6530      0.000000
     1.6535      0.000450
     1.6540      0.000020
     1.6545      0.000000
     1.6550      0.000000
     1.6555      0.000000
     1.6560      0.000000
     1.6565      0.000770
     1.6570      0.000740
     1.6575      0.000120
     1.6580      0.000800
     1.6585      0.000000
     1.6590      0.000160
     1.6595      0.000130
     1.6600      0.000540
     1.6605      0.000450
     1.6610      0.000180
     1.6615      0.000350
     1.6620      0.000000
     1.6625      0.000500
     1.6630      0.000340
     1.6635      0.000000
     1.6640      0.000020
     1.6645      0.000330
     1.6650      0.000430
     1.6655      0.000380
     1.6660      0.000040
     1.6665      0.000000
     1.6670      0.000010
     1.6675      0.000000
     1.6680      0.000000
     1.6685      0.000070
     1.6690      0.000040
     1.6695      0.000210
     1.6700      0.000590
     1.6705      0.000920
     1.6710      0.000350
     1.6715      0.000560
     1.6720      0.000380
     1.6725      0.000250
     1.6730      0.000000
     1.6735      0.000020
     1.6740      0.000470
     1.6745      0.000850
     1.6750      0.000000
     1.6755      0.000000
     1.6760      0.000260
     1.6765      0.000640
     1.6770      0.000210
     1.6775      0.000530
     1.6780      0.000630
     1.6785      0.000270
     1.6790      0.000000
     1.6795      0.000350
     1.6800      0.000890
     1.6805      0.000550
     1.6810      0.000200
     1.6815      0.000000
     1.6820      0.000000
     1.6825      0.000000
     1.6830      0.000000
     1.6835      0.000000
     1.6840      0.000020
     1.6845      0.000000
     1.6850      0.000000
     1.6855      0.000000
     1.6860      0.000000
     1.6865      0.000000
     1.6870      0.000050
     1.6875      0.000360
     1.6880      0.000650
     1.6885      0.000230
     1.6890      0.000280
     1.6895      0.000000
     1.6900      0.000000
     1.6905      0.000270
     1.6910      0.000000
     1.6915      0.000000
     1.6920      0.000130
     1.6925      0.000390
     1.6930      0.000070
     1.6935      0.000160
     1.6940      0.000000
     1.6945      0.000180
     1.6950      0.000270
     1.6955      0.000460
     1.6960      0.000000
     1.6965      0.000000
     1.6970      0.000110
     1.6975      0.000110
     1.6980      0.000000
     1.6985      0.000230
     1.6990      0.000000
     1.6995      0.000000
     1.7000      0.000000
     1.7005      0.000030
     1.7010      0.000010
     1.7015      0.000000
     1.7020      0.000430
     1.7025      0.000210
     1.7030      0.000000
     1.7035      0.000000
     1.7040      0.000000
     1.7045      0.000160
     1.7050      0.000010
     1.7055      0.000080
     1.7060      0.000580
     1.7065      0.000520
     1.7070      0.000000
     1.7075      0.000000
     1.7080      0.000040
     1.7085      0.000240
     1.7090      0.000370
     1.7095      0.000370
     1.7100      0.000000
     1.7105      0.000000
     1.7110      0.000000
     1.7115      0.000000
     1.7120      0.000000
     1.7125      0.000000
     1.7130      0.000150
     1.7135      0.000140
     1.7140      0.000000
     1.7145      0.000240
     1.7150      0.000010
     1.7155      0.000070
     1.7160      0.000070
     1.7165      0.000140
     1.7170      0.000000
     1.7175      0.000000
     1.7180      0.000350
     1.7185      0.000260
     1.7190      0.000080
     1.7195      0.000940
     1.7200      0.001080
     1.7205      0.000330
     1.7210      0.000000
     1.7215      0.000000
     1.7220      0.000030
     1.7225      0.000010
     1.7230      0.000130
     1.7235      0.000020
     1.7240      0.000000
     1.7245      0.000000
     1.7250      0.000000
     1.7255      0.000000
     1.7260      0.000000
     1.7265      0.000000
     1.7270      0.000000
     1.7275      0.000000
     1.7280      0.000280
     1.7285      0.000330
     1.7290      0.000270
     1.7295      0.000570
     1.7300      0.000740
     1.7305      0.000980
     1.7310      0.001160
     1.7315      0.000270
     1.7320      0.000600
     1.7325      0.000490
     1.7330      0.000830
     1.7335      0.000320
     1.7340      0.000670
     1.7345      0.000060
     1.7350      0.000060
     1.7355      0.000000
     1.7360      0.000000
     1.7365      0.000000
     1.7370      0.000020
     1.7375      0.000340
     1.7380      0.000000
     1.7385      0.000170
     1.7390      0.000310
     1.7395      0.000220
     1.7400      0.000000
     1.7405      0.000000
     1.7410      0.000000
     1.7415      0.000000
     1.7420      0.000010
     1.7425      0.000150
     1.7430      0.000000
     1.7435      0.000000
     1.7440      0.000120
     1.7445      0.000330
     1.7450      0.000200
     1.7455      0.000080
     1.7460      0.000000
     1.7465      0.000000
     1.7470      0.000000
     1.7475      0.000060
     1.7480      0.000060
     1.7485      0.000000
     1.7490      0.000000
     1.7495      0.000010
     1.7500      0.000110
     1.7505      0.000120
     1.7510      0.000000
     1.7515      0.000000
     1.7520      0.000000
     1.7525      0.000000
     1.7530      0.000000
     1.7535      0.000000
     1.7540      0.000000
     1.7545      0.000000
     1.7550      0.000170
     1.7555      0.000130
     1.7560      0.000580
     1.7565      0.000620
     1.7570      0.000500
     1.7575      0.000520
     1.7580      0.000380
     1.7585      0.000020
     1.7590      0.000770
     1.7595      0.000990
     1.7600      0.001200
     1.7605      0.000470
     1.7610      0.000450
     1.7615      0.000560
     1.7620      0.000460
     1.7625      0.000260
     1.7630      0.000000
     1.7635      0.000110
     1.7640      0.000620
     1.7645      0.001120
     1.7650      0.000090
     1.7655      0.000000
     1.7660      0.000100
     1.7665      0.000010
     1.7670      0.000000
     1.7675      0.000000
     1.7680      0.000000
     1.7685      0.000280
     1.7690      0.000650
     1.7695      0.000300
     1.7700      0.000010
     1.7705      0.000000
     1.7710      0.000380
     1.7715      0.000000
     1.7720      0.000000
     1.7725      0.000000
     1.7730      0.000000
     1.7735      0.000000
     1.7740      0.000000
     1.7745      0.000000
     1.7750      0.000000
     1.7755      0.000000
     1.7760      0.000000
     1.7765      0.000000
     1.7770      0.000000
     1.7775      0.000000
     1.7780      0.000050
     1.7785      0.000350
     1.7790      0.000000
     1.7795      0.000000
     1.7800      0.000000
     1.7805      0.000000
     1.7810      0.000000
     1.7815      0.000000
     1.7820      0.000080
     1.7825      0.000420
     1.7830      0.000250
     1.7835      0.000000
     1.7840      0.000240
     1.7845      0.000330
     1.7850      0.000000
     1.7855      0.000360
     1.7860      0.000210
     1.7865      0.000030
     1.7870      0.000000
     1.7875      0.000000
     1.7880      0.000000
     1.7885      0.000010
     1.7890      0.000000
     1.7895      0.000160
     1.7900      0.000000
     1.7905      0.000170
     1.7910      0.000310
     1.7915      0.000000
     1.7920      0.000000
     1.7925      0.000080
     1.7930      0.000060
     1.7935      0.000270
     1.7940      0.000250
     1.7945      0.000000
     1.7950      0.000100
     1.7955      0.000750
     1.7960      0.000570
     1.7965      0.000000
     1.7970      0.000000
     1.7975      0.000000
     1.7980      0.000000
     1.7985      0.000000
     1.7990      0.000000
     1.7995      0.000000
     1.8000      0.000000
     1.8005      0.000100
     1.8010      0.000640
     1.8015      0.001020
     1.8020      0.000340
     1.8025      0.000290
     1.8030      0.000350
     1.8035      0.000040
     1.8040      0.000000
     1.8045      0.000060
     1.8050      0.000540
     1.8055      0.000020
     1.8060      0.000000
     1.8065      0.000000
     1.8070      0.000000
     1.8075      0.000000
     1.8080      0.000000
     1.8085      0.000000
     1.8090      0.000000
     1.8095      0.000000
     1.8100      0.000000
     1.8105      0.000000
     1.8110      0.000040
     1.8115      0.000000
     1.8120      0.000000
     1.8125      0.000000
     1.8130      0.000000
     1.8135      0.000000
     1.8140      0.000000
     1.8145      0.000000
     1.8150      0.000000
     1.8155      0.000000
     1.8160      0.000500
     1.8165      0.000070
     1.8170      0.000000
     1.8175      0.000000
     1.8180      0.000370
     1.8185      0.000020
     1.8190      0.000000
     1.8195      0.000000
     1.8200      0.000130
     1.8205      0.000070
     1.8210      0.000000
     1.8215      0.000000
     1.8220      0.000000
     1.8225      0.000000
     1.8230      0.000000
     1.8235      0.000360
     1.8240      0.000330
     1.8245      0.000370
     1.8250      0.000130
     1.8255      0.000000
     1.8260      0.000490
     1.8265      0.000350
     1.8270      0.000000
     1.8275      0.000030
     1.8280      0.000240
     1.8285      0.000080
     1.8290      0.000140
     1.8295      0.000420
     1.8300      0.000130
     1.8305      0.000040
     1.8310      0.000000
     1.8315      0.000000
     1.8320      0.000160
     1.8325      0.000010
     1.8330      0.000000
     1.8335      0.000000
     1.8340      0.000000
     1.8345      0.000170
     1.8350      0.000260
     1.8355      0.000100
     1.8360      0.000000
     1.8365      0.000000
     1.8370      0.000000
     1.8375      0.000000
     1.8380      0.000040
     1.8385      0.000000
     1.8390      0.000170
     1.8395      0.000190
     1.8400      0.000000
     1.8405      0.000010
     1.8410      0.000130
     1.8415      0.000160
     1.8420      0.000000
     1.8425      0.000140
     1.8430      0.000810
     1.8435      0.000370
     1.8440      0.000170
     1.8445      0.000000
     1.8450      0.000000
     1.8455      0.000000
     1.8460      0.000420
     1.8465      0.000880
     1.8470      0.000340
     1.8475      0.000500
     1.8480      0.000260
     1.8485      0.000000
     1.8490      0.000000
     1.8495      0.000080
     1.8500      0.000000
     1.8505      0.000080
     1.8510      0.000130
     1.8515      0.000000
     1.8520      0.000270
     1.8525      0.000820
     1.8530      0.000910
     1.8535      0.001120
     1.8540      0.000260
     1.8545      0.000110
     1.8550      0.000000
     1.8555      0.000000
     1.8560      0.000000
     1.8565      0.000170
     1.8570      0.000590
     1.8575      0.000100
     1.8580      0.000000
     1.8585      0.000000
     1.8590      0.000050
     1.8595      0.000000
     1.8600      0.000320
     1.8605      0.000440
     1.8610      0.000590
     1.8615      0.000050
     1.8620      0.000080
     1.8625      0.000440
     1.8630      0.000240
     1.8635      0.000000
     1.8640      0.000000
     1.8645      0.000000
     1.8650      0.000230
     1.8655      0.000210
     1.8660      0.000000
     1.8665      0.000000
     1.8670      0.000030
     1.8675      0.000330
     1.8680      0.000100
     1.8685      0.000000
     1.8690      0.000010
     1.8695      0.000040
     1.8700      0.000000
     1.8705      0.000000
     1.8710      0.000000
     1.8715      0.000000
     1.8720      0.000000
     1.8725      0.000260
     1.8730      0.000630
     1.8735      0.000000
     1.8740      0.000230
     1.8745      0.001000
     1.8750      0.000830
     1.8755      0.000690
     1.8760      0.000180
     1.8765      0.000310
     1.8770      0.000590
     1.8775      0.000530
     1.8780      0.000360
     1.8785      0.000000
     1.8790      0.000000
     1.8795      0.000000
     1.8800      0.000000
     1.8805      0.000000
     1.8810      0.000150
     1.8815      0.000000
     1.8820      0.000000
     1.8825      0.000000
     1.8830      0.000130
     1.8835      0.000300
     1.8840      0.000000
     1.8845      0.000000
     1.8850      0.000000
     1.8855      0.000000
     1.8860      0.000000
     1.8865      0.000280
     1.8870      0.000410
     1.8875      0.000020
     1.8880      0.000000
     1.8885      0.000000
     1.8890      0.000000
     1.8895      0.000030
     1.8900      0.000200
     1.8905      0.000000
     1.8910      0.000000
     1.8915      0.000010
     1.8920      0.000290
     1.8925      0.000080
     1.8930      0.000000
     1.8935      0.000000
     1.8940      0.000000
     1.8945      0.000000
     1.8950      0.000070
     1.8955      0.000080
     1.8960      0.000010
     1.8965      0.000090
     1.8970      0.000000
     1.8975      0.000000
     1.8980      0.000000
     1.8985      0.000000
     1.8990      0.000000
     1.8995      0.000000
     1.9000      0.000000
     1.9005      0.000000
     1.9010      0.000000
     1.9015      0.000000
     1.9020      0.000000
     1.9025      0.000000
     1.9030      0.000000
     1.9035      0.000000
     1.9040      0.000000
     1.9045      0.000000
     1.9050      0.000000
     1.9055      0.000010
     1.9060      0.000250
     1.9065      0.000500
     1.9070      0.000010
     1.9075      0.000000
     1.9080      0.000000
     1.9085      0.000150
     1.9090      0.000150
     1.9095      0.000000
     1.9100      0.000000
     1.9105      0.000000
     1.9110      0.000000
     1.9115      0.000000
     1.9120      0.000000
     1.9125      0.000160
     1.9130      0.000340
     1.9135      0.000000
     1.9140      0.000000
     1.9145      0.000220
     1.9150      0.000280
     1.9155      0.000060
     1.9160      0.000050
     1.9165      0.000250
     1.9170      0.000320
     1.9175      0.000860
     1.9180      0.000270
     1.9185      0.000000
     1.9190      0.000000
     1.9195      0.000070
     1.9200      0.000030
     1.9205      0.000480
     1.9210      0.000520
     1.9215      0.000060
     1.9220      0.000020
     1.9225      0.000470
     1.9230      0.000080
     1.9235      0.000000
     1.9240      0.000000
     1.9245      0.000150
     1.9250      0.000000
     1.9255      0.000000
     1.9260      0.000000
     1.9265      0.000000
     1.9270      0.000000
     1.9275      0.000000
     1.9280      0.000000
     1.9285      0.000000
     1.9290      0.000010
     1.9295      0.000000
     1.9300      0.000070
     1.9305      0.000000
     1.9310      0.000020
     1.9315      0.000490
     1.9320      0.000250
     1.9325      0.000000
     1.9330      0.000000
     1.9335      0.000060
     1.9340      0.000320
     1.9345      0.000020
     1.9350      0.000000
     1.9355      0.000000
     1.9360      0.000000
     1.9365      0.000000
     1.9370      0.000000
     1.9375      0.000000
     1.9380      0.000000
     1.9385      0.000010
     1.9390      0.000030
     1.9395      0.000000
     1.9400      0.000000
     1.9405      0.000000
     1.9410      0.000000
     1.9415      0.000000
     1.9420      0.000000
     1.9425      0.000230
     1.9430      0.000160
     1.9435      0.000000
     1.9440      0.000000
     1.9445      0.000000
     1.9450      0.000000
     1.9455      0.000000
     1.9460      0.000060
     1.9465      0.000180
     1.9470      0.000000
     1.9475      0.000000
     1.9480      0.000000
     1.9485      0.000000
     1.9490      0.000000
     1.9495      0.000020
     1.9500      0.000000
     1.9505      0.000000
     1.9510      0.000000
     1.9515      0.000000
     1.9520      0.000000
     1.9525      0.000000
     1.9530      0.000000
     1.9535      0.000000
     1.9540      0.000020
     1.9545      0.000310
     1.9550      0.000000
     1.9555      0.000000
     1.9560      0.000000
     1.9565      0.000000
     1.9570      0.000000
     1.9575      0.000000
     1.9580      0.000020
     1.9585      0.000000
     1.9590      0.000000
     1.9595      0.000000
     1.9600      0.000050
     1.9605      0.000830
     1.9610      0.000130
     1.9615      0.000140
     1.9620      0.000650
     1.9625      0.000000
     1.9630      0.000000
     1.9635      0.000000
     1.9640      0.000000
     1.9645      0.000000
     1.9650      0.000000
     1.9655      0.000000
     1.9660      0.000000
     1.9665      0.000000
     1.9670      0.000000
     1.9675      0.000000
     1.9680      0.000040
     1.9685      0.000280
     1.9690      0.000050
     1.9695      0.000000
     1.9700      0.000000
     1.9705      0.000000
     1.9710      0.000000
     1.9715      0.000000
     1.9720      0.000000
     1.9725      0.000110
     1.9730      0.000240
     1.9735      0.000110
     1.9740      0.000490
     1.9745      0.000280
     1.9750      0.000000
     1.9755      0.000000
     1.9760      0.000000
     1.9765      0.000530
     1.9770      0.000910
     1.9775      0.000200
     1.9780      0.000000
     1.9785      0.000020
     1.9790      0.000330
     1.9795      0.000590
     1.9800      0.000220
     1.9805      0.000040
     1.9810      0.000270
     1.9815      0.000000
     1.9820      0.000000
     1.9825      0.000220
     1.9830      0.000330
     1.9835      0.000570
     1.9840      0.000450
     1.9845      0.000010
     1.9850      0.000000
     1.9855      0.000000
     1.9860      0.000000
     1.9865      0.000000
     1.9870      0.000060
     1.9875      0.000250
     1.9880      0.000680
     1.9885      0.000750
     1.9890      0.000100
     1.9895      0.000060
     1.9900      0.000020
     1.9905      0.000020
     1.9910      0.000000
     1.9915      0.000000
     1.9920      0.000000
     1.9925      0.000000
     1.9930      0.000080
     1.9935      0.000140
     1.9940      0.000000
     1.9945      0.000000
     1.9950      0.000000
     1.9955      0.000000
     1.9960      0.000000
     1.9965      0.000090
     1.9970      0.000050
     1.9975      0.000000
     1.9980      0.000000
     1.9985      0.000000
     1.9990      0.000000
     1.9995      0.000000
     2.0000      0.000000
     2.0005      0.000000
     2.0010      0.000320
     2.0015      0.000420
     2.0020      0.000050
     2.0025      0.000000
     2.0030      0.000000
     2.0035      0.000290
     2.0040      0.000810
     2.0045      0.000480
     2.0050      0.000000
     2.0055      0.000000
     2.0060      0.000000
     2.0065      0.000000
     2.0070      0.000000
     2.0075      0.000110
     2.0080      0.000260
     2.0085      0.000620
     2.0090      0.001140
     2.0095      0.001010
     2.0100      0.000140
     2.0105      0.000000
     2.0110      0.000000
     2.0115      0.000000
     2.0120      0.000000
     2.0125      0.000100
     2.0130      0.000350
     2.0135      0.000140
     2.0140      0.000000
     2.0145      0.000340
     2.0150      0.000510
     2.0155      0.000000
     2.0160      0.000000
     2.0165      0.000000
     2.0170      0.000000
     2.0175      0.000000
     2.0180      0.000000
     2.0185      0.000000
     2.0190      0.000000
     2.0195      0.000050
     2.0200      0.000500
     2.0205      0.000190
     2.0210      0.000000
     2.0215      0.000000
     2.0220      0.000000
     2.0225      0.000000
     2.0230      0.000000
     2.0235      0.000000
     2.0240      0.000000
     2.0245      0.000000
     2.0250      0.000000
     2.0255      0.000000
     2.0260      0.000000
     2.0265      0.000000
     2.0270      0.000000
     2.0275      0.000000
     2.0280      0.000000
     2.0285      0.000000
     2.0290      0.000000
     2.0295      0.000000
     2.0300      0.000030
     2.0305      0.000000
     2.0310      0.000000
     2.0315      0.000000
     2.0320      0.000000
     2.0325      0.000000
     2.0330      0.000080
     2.0335      0.000200
     2.0340      0.000000
     2.0345      0.000000
     2.0350      0.000280
     2.0355      0.000440
     2.0360      0.000210
     2.0365      0.000130
     2.0370      0.000000
     2.0375      0.000000
     2.0380      0.000000
     2.0385      0.000170
     2.0390      0.000840
     2.0395      0.000760
     2.0400      0.000000
     2.0405      0.000000
     2.0410      0.000030
     2.0415      0.000010
     2.0420      0.000000
     2.0425      0.000000
     2.0430      0.000000
     2.0435      0.000000
     2.0440      0.000000
     2.0445      0.000000
     2.0450      0.000040
     2.0455      0.000140
     2.0460      0.000190
     2.0465      0.000000
     2.0470      0.000000
     2.0475      0.000000
     2.0480      0.000000
     2.0485      0.000000
     2.0490      0.000000
     2.0495      0.000120
     2.0500      0.000470
     2.0505      0.000520
     2.0510      0.000000
     2.0515      0.000000
     2.0520      0.000180
     2.0525      0.000420
     2.0530      0.000220
     2.0535      0.000000
     2.0540      0.000000
     2.0545      0.000000
     2.0550      0.000000
     2.0555      0.000000
     2.0560      0.000120
     2.0565      0.000360
     2.0570      0.000070
     2.0575      0.000000
     2.0580      0.000000
     2.0585      0.000000
     2.0590      0.000000
     2.0595      0.000060
     2.0600      0.000100
     2.0605      0.000000
     2.0610      0.000000
     2.0615      0.000000
     2.0620      0.000000
     2.0625      0.000000
     2.0630      0.000030
     2.0635      0.000000
     2.0640      0.000000
     2.0645      0.000000
     2.0650      0.000000
     2.0655      0.000000
     2.0660      0.000260
     2.0665      0.000000
     2.0670      0.000000
     2.0675      0.000000
     2.0680      0.000510
     2.0685      0.000000
     2.0690      0.000000
     2.0695      0.000000
     2.0700      0.000000
     2.0705      0.000000
     2.0710      0.000000
     2.0715      0.000000
     2.0720      0.000000
     2.0725      0.000000
     2.0730      0.000000
     2.0735      0.000000
     2.0740      0.000000
     2.0745      0.000000
     2.0750      0.000000
     2.0755      0.000160
     2.0760      0.000280
     2.0765      0.000360
     2.0770      0.000540
     2.0775      0.000420
     2.0780      0.000260
     2.0785      0.000020
     2.0790      0.000000
     2.0795      0.000000
     2.0800      0.000000
     2.0805      0.000400
     2.0810      0.000510
     2.0815      0.000060
     2.0820      0.000000
     2.0825      0.000000
     2.0830      0.000540
     2.0835      0.000690
     2.0840      0.000230
     2.0845      0.000340
     2.0850      0.000280
     2.0855      0.000000
     2.0860      0.000000
     2.0865      0.000000
     2.0870      0.000000
     2.0875      0.000000
     2.0880      0.000000
     2.0885      0.000320
     2.0890      0.000660
     2.0895      0.000220
     2.0900      0.000000
     2.0905      0.000060
     2.0910      0.000000
     2.0915      0.000000
     2.0920      0.000150
     2.0925      0.000430
     2.0930      0.000460
     2.0935      0.000230
     2.0940      0.000390
     2.0945      0.000080
     2.0950      0.000270
     2.0955      0.000970
     2.0960      0.000740
     2.0965      0.000520
     2.0970      0.000430
     2.0975      0.000130
     2.0980      0.000000
     2.0985      0.000040
     2.0990      0.000360
     2.0995      0.000180
     2.1000      0.000320
     2.1005      0.000340
     2.1010      0.000180
     2.1015      0.000060
     2.1020      0.000120
     2.1025      0.000000
     2.1030      0.000000
     2.1035      0.000220
     2.1040      0.000690
     2.1045      0.000600
     2.1050      0.000040
     2.1055      0.000000
     2.1060      0.000000
     2.1065      0.000000
     2.1070      0.000000
     2.1075      0.000440
     2.1080      0.000980
     2.1085      0.000590
     2.1090      0.000440
     2.1095      0.000380
     2.1100      0.000300
     2.1105      0.000570
     2.1110      0.000610
     2.1115      0.000380
     2.1120      0.000090
     2.1125      0.000110
     2.1130      0.000760
     2.1135      0.000970
     2.1140      0.000240
     2.1145      0.000010
     2.1150      0.000030
     2.1155      0.000000
     2.1160      0.000000
     2.1165      0.000050
     2.1170      0.000020
     2.1175      0.000000
     2.1180      0.000020
     2.1185      0.000000
     2.1190      0.000000
     2.1195      0.000040
     2.1200      0.000480
     2.1205      0.000120
     2.1210      0.000000
     2.1215      0.000020
     2.1220      0.000190
     2.1225      0.000370
     2.1230      0.000290
     2.1235      0.000400
     2.1240      0.000440
     2.1245      0.000170
     2.1250      0.000170
     2.1255      0.000090
     2.1260      0.000050
     2.1265      0.000380
     2.1270      0.000550
     2.1275      0.000570
     2.1280      0.000410
     2.1285      0.000300
     2.1290      0.000170
     2.1295      0.000390
     2.1300      0.000500
     2.1305      0.000310
     2.1310      0.000310
     2.1315      0.000000
     2.1320      0.000080
     2.1325      0.000140
     2.1330      0.000080
     2.1335      0.000170
     2.1340      0.000120
     2.1345      0.000550
     2.1350      0.000570
     2.1355      0.000180
     2.1360      0.000020
     2.1365      0.000000
     2.1370      0.000140
     2.1375      0.001090
     2.1380      0.000700
     2.1385      0.000130
     2.1390      0.000050
     2.1395      0.000000
     2.1400      0.000000
     2.1405      0.000000
     2.1410      0.000000
     2.1415      0.000290
     2.1420      0.000160
     2.1425      0.000000
     2.1430      0.000000
     2.1435      0.000000
     2.1440      0.000000
     2.1445      0.000360
     2.1450      0.000470
     2.1455      0.000100
     2.1460      0.000000
     2.1465      0.000000
     2.1470      0.000000
     2.1475      0.000010
     2.1480      0.000140
     2.1485      0.000060
     2.1490      0.000000
     2.1495      0.000000
     2.1500      0.000000
     2.1505      0.000030
     2.1510      0.000110
     2.1515      0.000060
     2.1520      0.000000
     2.1525      0.000000
     2.1530      0.000170
     2.1535      0.000220
     2.1540      0.000000
     2.1545      0.000000
     2.1550      0.000000
     2.1555      0.000000
     2.1560      0.000000
     2.1565      0.000120
     2.1570      0.000060
     2.1575      0.000000
     2.1580      0.000000
     2.1585      0.000000
     2.1590      0.000110
     2.1595      0.000390
     2.1600      0.000350
     2.1605      0.000270
     2.1610      0.000070
     2.1615      0.000000
     2.1620      0.000300
     2.1625      0.000180
     2.1630      0.000400
     2.1635      0.000570
     2.1640      0.000300
     2.1645      0.000140
     2.1650      0.000060
     2.1655      0.000170
     2.1660      0.000260
     2.1665      0.000040
     2.1670      0.000150
     2.1675      0.000430
     2.1680      0.000410
     2.1685      0.000220
     2.1690      0.000120
     2.1695      0.000150
     2.1700      0.000250
     2.1705      0.000530
     2.1710      0.000550
     2.1715      0.000260
     2.1720      0.000250
     2.1725      0.000090
     2.1730      0.000050
     2.1735      0.000350
     2.1740      0.000450
     2.1745      0.000120
     2.1750      0.000120
     2.1755      0.000300
     2.1760      0.000300
     2.1765      0.000310
     2.1770      0.000470
     2.1775      0.000660
     2.1780      0.000340
     2.1785      0.000420
     2.1790      0.000740
     2.1795      0.000580
     2.1800      0.000780
     2.1805      0.001000
     2.1810      0.000410
     2.1815      0.000040
     2.1820      0.000000
     2.1825      0.000060
     2.1830      0.000000
     2.1835      0.000040
     2.1840      0.000160
     2.1845      0.000000
     2.1850      0.000000
     2.1855      0.000000
     2.1860      0.000000
     2.1865      0.000000
     2.1870      0.000000
     2.1875      0.000000
     2.1880      0.000060
     2.1885      0.000270
     2.1890      0.000240
     2.1895      0.000000
     2.1900      0.000000
     2.1905      0.000000
     2.1910      0.000160
     2.1915      0.000630
     2.1920      0.000680
     2.1925      0.000400
     2.1930      0.000490
     2.1935      0.000410
     2.1940      0.000180
     2.1945      0.000000
     2.1950      0.000010
     2.1955      0.000310
     2.1960      0.000670
     2.1965      0.000460
     2.1970      0.000110
     2.1975      0.000000
     2.1980      0.000000
     2.1985      0.000000
     2.1990      0.000070
     2.1995      0.000030
     2.2000      0.000000
     2.2005      0.000000
     2.2010      0.000000
     2.2015      0.000000
     2.2020      0.000020
     2.2025      0.000240
     2.2030      0.000010
     2.2035      0.000030
     2.2040      0.000230
     2.2045      0.000580
     2.2050      0.000780
     2.2055      0.000770
     2.2060      0.000630
     2.2065      0.000350
     2.2070      0.000250
     2.2075      0.000300
     2.2080      0.000750
     2.2085      0.000950
     2.2090      0.000170
     2.2095      0.000120
     2.2100      0.000310
     2.2105      0.000300
     2.2110      0.000670
     2.2115      0.000500
     2.2120      0.000170
     2.2125      0.000150
     2.2130      0.000300
     2.2135      0.000380
     2.2140      0.000130
     2.2145      0.000210
     2.2150      0.000280
     2.2155      0.000070
     2.2160      0.000000
     2.2165      0.000370
     2.2170      0.000300
     2.2175      0.000010
     2.2180      0.000000
     2.2185      0.000000
     2.2190      0.000050
     2.2195      0.000350
     2.2200      0.000310
     2.2205      0.000000
     2.2210      0.000000
     2.2215      0.000000
     2.2220      0.000010
     2.2225      0.000010
     2.2230      0.000000
     2.2235      0.000000
     2.2240      0.000140
     2.2245      0.000570
     2.2250      0.000360
     2.2255      0.000050
     2.2260      0.000000
     2.2265      0.000000
     2.2270      0.000000
     2.2275      0.000520
     2.2280      0.000620
     2.2285      0.000200
     2.2290      0.000040
     2.2295      0.000030
     2.2300      0.000020
     2.2305      0.000160
     2.2310      0.000200
     2.2315      0.000020
     2.2320      0.000000
     2.2325      0.000000
     2.2330      0.000000
     2.2335      0.000000
     2.2340      0.000000
     2.2345      0.000000
     2.2350      0.000000
     2.2355      0.000000
     2.2360      0.000000
     2.2365      0.000000
     2.2370      0.000000
     2.2375      0.000080
     2.2380      0.000160
     2.2385      0.000030
     2.2390      0.000000
     2.2395      0.000000
     2.2400      0.000000
     2.2405      0.000050
     2.2410      0.000090
     2.2415      0.000150
     2.2420      0.000000
     2.2425      0.000000
     2.2430      0.000060
     2.2435      0.000380
     2.2440      0.000150
     2.2445      0.000020
     2.2450      0.000060
     2.2455      0.000000
     2.2460      0.000000
     2.2465      0.000000
     2.2470      0.000120
     2.2475      0.000270
     2.2480      0.000110
     2.2485      0.000000
     2.2490      0.000000
     2.2495      0.000000
     2.2500      0.000000
     2.2505      0.000160
     2.2510      0.000450
     2.2515      0.000320
     2.2520      0.000050
     2.2525      0.000000
     2.2530      0.000000
     2.2535      0.000000
     2.2540      0.000000
     2.2545      0.000000
     2.2550      0.000000
     2.2555      0.000650
     2.2560      0.001230
     2.2565      0.001160
     2.2570      0.001170
     2.2575      0.001540
     2.2580      0.001370
     2.2585      0.000770
     2.2590      0.000480
     2.2595      0.000350
     2.2600      0.000190
     2.2605      0.000020
     2.2610      0.000000
     2.2615      0.000000
     2.2620      0.000000
     2.2625      0.000000
     2.2630      0.000000
     2.2635      0.000000
     2.2640      0.000000
     2.2645      0.000000
     2.2650      0.000000
     2.2655      0.000000
     2.2660      0.000010
     2.2665      0.000130
     2.2670      0.000000
     2.2675      0.000000
     2.2680      0.000000
     2.2685      0.000000
     2.2690      0.000040
     2.2695      0.000290
     2.2700      0.000000
     2.2705      0.000000
     2.2710      0.000000
     2.2715      0.000080
     2.2720      0.000610
     2.2725      0.000690
     2.2730      0.000600
     2.2735      0.000520
     2.2740      0.000220
     2.2745      0.000000
     2.2750      0.000000
     2.2755      0.000000
     2.2760      0.000000
     2.2765      0.000000
     2.2770      0.000000
     2.2775      0.000000
     2.2780      0.000000
     2.2785      0.000000
     2.2790      0.000000
     2.2795      0.000010
     2.2800      0.000060
     2.2805      0.000000
     2.2810      0.000000
     2.2815      0.000000
     2.2820      0.000000
     2.2825      0.000060
     2.2830      0.000390
     2.2835      0.000190
     2.2840      0.000000
     2.2845      0.000070
     2.2850      0.000600
     2.2855      0.000850
     2.2860      0.000730
     2.2865      0.000250
     2.2870      0.000070
     2.2875      0.000000
     2.2880      0.000000
     2.2885      0.000000
     2.2890      0.000030
     2.2895      0.000000
     2.2900      0.000000
     2.2905      0.000000
     2.2910      0.000000
     2.2915      0.000000
     2.2920      0.000000
     2.2925      0.000300
     2.2930      0.000420
     2.2935      0.000450
     2.2940      0.000360
     2.2945      0.000270
     2.2950      0.000340
     2.2955      0.000210
     2.2960      0.000030
     2.2965      0.000000
     2.2970      0.000110
     2.2975      0.000040
     2.2980      0.000000
     2.2985      0.000000
     2.2990      0.000000
     2.2995      0.000000
     2.3000      0.000000
     2.3005      0.000190
     2.3010      0.000410
     2.3015      0.000280
     2.3020      0.000070
     2.3025      0.000000
     2.3030      0.000000
     2.3035      0.000000
     2.3040      0.000300
     2.3045      0.000740
     2.3050      0.000760
     2.3055      0.000580
     2.3060      0.000390
     2.3065      0.000150
     2.3070      0.000190
     2.3075      0.000200
     2.3080      0.000000
     2.3085      0.000120
     2.3090      0.000280
     2.3095      0.000000
     2.3100      0.000050
     2.3105      0.000290
     2.3110      0.000600
     2.3115      0.000430
     2.3120      0.000180
     2.3125      0.000000
     2.3130      0.000040
     2.3135      0.000360
     2.3140      0.000530
     2.3145      0.000470
     2.3150      0.000320
     2.3155      0.000300
     2.3160      0.000180
     2.3165      0.000150
     2.3170      0.000030
     2.3175      0.000000
     2.3180      0.000000
     2.3185      0.000000
     2.3190      0.000000
     2.3195      0.000180
     2.3200      0.000380
     2.3205      0.000290
     2.3210      0.000100
     2.3215      0.000130
     2.3220      0.000220
     2.3225      0.000110
     2.3230      0.000000
     2.3235      0.000000
     2.3240      0.000000
     2.3245      0.000000
     2.3250      0.000000
     2.3255      0.000000
     2.3260      0.000000
     2.3265      0.000000
     2.3270      0.000000
     2.3275      0.000000
     2.3280      0.000000
     2.3285      0.000000
     2.3290      0.000000
     2.3295      0.000000
     2.3300      0.000380
     2.3305      0.000290
     2.3310      0.000070
     2.3315      0.000000
     2.3320      0.000000
     2.3325      0.000180
     2.3330      0.000370
     2.3335      0.000230
     2.3340      0.000000
     2.3345      0.000000
     2.3350      0.000000
     2.3355      0.000000
     2.3360      0.000040
     2.3365      0.000190
     2.3370      0.000000
     2.3375      0.000000
     2.3380      0.000000
     2.3385      0.000000
     2.3390      0.000060
     2.3395      0.000200
     2.3400      0.000050
     2.3405      0.000000
     2.3410      0.000000
     2.3415      0.000000
     2.3420      0.000000
     2.3425      0.000000
     2.3430      0.000000
     2.3435      0.000010
     2.3440      0.000010
     2.3445      0.000000
     2.3450      0.000000
     2.3455      0.000000
     2.3460      0.000030
     2.3465      0.000310
     2.3470      0.000520
     2.3475      0.000410
     2.3480      0.000260
     2.3485      0.000370
     2.3490      0.000710
     2.3495      0.000350
     2.3500      0.000050
     2.3505      0.000000
     2.3510      0.000250
     2.3515      0.000280
     2.3520      0.000000
     2.3525      0.000070
     2.3530      0.000330
     2.3535      0.000530
     2.3540      0.000060
     2.3545      0.000000
     2.3550      0.000000
     2.3555      0.000210
     2.3560      0.000030
     2.3565      0.000000
     2.3570      0.000000
     2.3575      0.000280
     2.3580      0.000570
     2.3585      0.000400
     2.3590      0.000080
     2.3595      0.000010
     2.3600      0.000120
     2.3605      0.000310
     2.3610      0.000290
     2.3615      0.000320
     2.3620      0.000660
     2.3625      0.000960
     2.3630      0.000800
     2.3635      0.000490
     2.3640      0.000320
     2.3645      0.000210
     2.3650      0.000140
     2.3655      0.000220
     2.3660      0.000510
     2.3665      0.000810
     2.3670      0.000760
     2.3675      0.000330
     2.3680      0.000200
     2.3685      0.000420
     2.3690      0.000000
     2.3695      0.000000
     2.3700      0.000000
     2.3705      0.000350
     2.3710      0.000460
     2.3715      0.000170
     2.3720      0.000000
     2.3725      0.000150
     2.3730      0.000380
     2.3735      0.000320
     2.3740      0.000000
     2.3745      0.000000
     2.3750      0.000000
     2.3755      0.000040
     2.3760      0.000440
     2.3765      0.000470
     2.3770      0.000160
     2.3775      0.000020
     2.3780      0.000000
     2.3785      0.000010
     2.3790      0.000010
     2.3795      0.000000
     2.3800      0.000000
     2.3805      0.000000
     2.3810      0.000000
     2.3815      0.000050
     2.3820      0.000010
     2.3825      0.000000
     2.3830      0.000000
     2.3835      0.000000
     2.3840      0.000000
     2.3845      0.000000
     2.3850      0.000000
     2.3855      0.000000
     2.3860      0.000080
     2.3865      0.000480
     2.3870      0.001060
     2.3875      0.000880
     2.3880      0.000690
     2.3885      0.000160
     2.3890      0.000000
     2.3895      0.000000
     2.3900      0.000000
     2.3905      0.000000
     2.3910      0.000000
     2.3915      0.000000
     2.3920      0.000000
     2.3925      0.000000
     2.3930      0.000000
     2.3935      0.000000
     2.3940      0.000000
     2.3945      0.000000
     2.3950      0.000000
     2.3955      0.000000
     2.3960      0.000000
     2.3965      0.000000
     2.3970      0.000000
     2.3975      0.000020
     2.3980      0.000030
     2.3985      0.000000
     2.3990      0.000000
     2.3995      0.000060
     2.4000      0.000230
     2.4005      0.000190
     2.4010      0.000000
     2.4015      0.000000
     2.4020      0.000000
     2.4025      0.000020
     2.4030      0.000430
     2.4035      0.000280
     2.4040      0.000060
     2.4045      0.000000
     2.4050      0.000000
     2.4055      0.000100
     2.4060      0.000350
     2.4065      0.000540
     2.4070      0.000220
     2.4075      0.000000
     2.4080      0.000000
     2.4085      0.000000
     2.4090      0.000000
     2.4095      0.000000
     2.4100      0.000000
     2.4105      0.000000
     2.4110      0.000000
     2.4115      0.000000
     2.4120      0.000000
     2.4125      0.000000
     2.4130      0.000000
     2.4135      0.000000
     2.4140      0.000000
     2.4145      0.000000
     2.4150      0.000000
     2.4155      0.000000
     2.4160      0.000000
     2.4165      0.000000
     2.4170      0.000000
     2.4175      0.000000
     2.4180      0.000000
     2.4185      0.000000
     2.4190      0.000000
     2.4195      0.000000
     2.4200      0.000000
     2.4205      0.000000
     2.4210      0.000000
     2.4215      0.000000
     2.4220      0.000000
     2.4225      0.000060
     2.4230      0.000350
     2.4235      0.000600
     2.4240      0.000580
     2.4245      0.000330
     2.4250      0.000000
     2.4255      0.000030
     2.4260      0.000000
     2.4265      0.000000
     2.4270      0.000000
     2.4275      0.000000
     2.4280      0.000000
     2.4285      0.000000
     2.4290      0.000000
     2.4295      0.000000
     2.4300      0.000000
     2.4305      0.000000
     2.4310      0.000190
     2.4315      0.000280
     2.4320      0.000150
     2.4325      0.000080
     2.4330      0.000350
     2.4335      0.000620
     2.4340      0.000470
     2.4345      0.000100
     2.4350      0.000000
     2.4355      0.000000
     2.4360      0.000050
     2.4365      0.000080
     2.4370      0.000000
     2.4375      0.000030
     2.4380      0.000220
     2.4385      0.000150
     2.4390      0.000280
     2.4395      0.000440
     2.4400      0.000370
     2.4405      0.000100
     2.4410      0.000080
     2.4415      0.000190
     2.4420      0.000030
     2.4425      0.000000
     2.4430      0.000000
     2.4435      0.000000
     2.4440      0.000000
     2.4445      0.000030
     2.4450      0.000180
     2.4455      0.000240
     2.4460      0.000050
     2.4465      0.000000
     2.4470      0.000090
     2.4475      0.000110
     2.4480      0.000010
     2.4485      0.000050
     2.4490      0.000350
     2.4495      0.000450
     2.4500      0.000130
     2.4505      0.000000
     2.4510      0.000030
     2.4515      0.000160
     2.4520      0.000370
     2.4525      0.000420
     2.4530      0.000210
     2.4535      0.000230
     2.4540      0.000160
     2.4545      0.000120
     2.4550      0.000320
     2.4555      0.000620
     2.4560      0.000420
     2.4565      0.000040
     2.4570      0.000000
     2.4575      0.000100
     2.4580      0.000180
     2.4585      0.000130
     2.4590      0.000000
     2.4595      0.000000
     2.4600      0.000000
     2.4605      0.000000
     2.4610      0.000000
     2.4615      0.000000
     2.4620      0.000060
     2.4625      0.000150
     2.4630      0.000000
     2.4635      0.000000
     2.4640      0.000350
     2.4645      0.000930
     2.4650      0.000900
     2.4655      0.000500
     2.4660      0.000460
     2.4665      0.000720
     2.4670      0.000540
     2.4675      0.000250
     2.4680      0.000090
     2.4685      0.000060
     2.4690      0.000200
     2.4695      0.000500
     2.4700      0.000760
     2.4705      0.000410
     2.4710      0.000110
     2.4715      0.000000
     2.4720      0.000000
     2.4725      0.000000
     2.4730      0.000010
     2.4735      0.000160
     2.4740      0.000400
     2.4745      0.000460
     2.4750      0.000340
     2.4755      0.000150
     2.4760      0.000010
     2.4765      0.000000
     2.4770      0.000000
     2.4775      0.000000
     2.4780      0.000000
     2.4785      0.000000
     2.4790      0.000000
     2.4795      0.000000
     2.4800      0.000000
     2.4805      0.000080
     2.4810      0.000180
     2.4815      0.000130
     2.4820      0.000000
     2.4825      0.000000
     2.4830      0.000000
     2.4835      0.000000
     2.4840      0.000000
     2.4845      0.000000
     2.4850      0.000000
     2.4855      0.000000
     2.4860      0.000030
     2.4865      0.000000
     2.4870      0.000000
     2.4875      0.000050
     2.4880      0.000050
     2.4885      0.000000
     2.4890      0.000000
     2.4895      0.000000
     2.4900      0.000000
     2.4905      0.000000
     2.4910      0.000000
     2.4915      0.000000
     2.4920      0.000000
     2.4925      0.000000
     2.4930      0.000140
     2.4935      0.000410
     2.4940      0.000470
     2.4945      0.000280
     2.4950      0.000270
     2.4955      0.000280
     2.4960      0.000080
     2.4965      0.000000
     2.4970      0.000000
     2.4975      0.000000
     2.4980      0.000000
     2.4985      0.000000
     2.4990      0.000000
     2.4995      0.000000
     2.5000      0.000000
     2.5005      0.000000
     2.5010      0.000000
     2.5015      0.000000
     2.5020      0.000190
     2.5025      0.000140
     2.5030      0.000000
     2.5035      0.000000
     2.5040      0.000000
     2.5045      0.000000
     2.5050      0.000060
     2.5055      0.000160
     2.5060      0.000160
     2.5065      0.000000
     2.5070      0.000000
     2.5075      0.000000
     2.5080      0.000000
     2.5085      0.000050
     2.5090      0.000170
     2.5095      0.000350
     2.5100      0.000040
     2.5105      0.000000
     2.5110      0.000000
     2.5115      0.000000
     2.5120      0.000000
     2.5125      0.000000
     2.5130      0.000000
     2.5135      0.000000
     2.5140      0.000000
     2.5145      0.000000
     2.5150      0.000000
     2.5155      0.000000
     2.5160      0.000000
     2.5165      0.000000
     2.5170      0.000000
     2.5175      0.000000
     2.5180      0.000000
     2.5185      0.000000
     2.5190      0.000000
     2.5195      0.000000
     2.5200      0.000000
     2.5205      0.000000
     2.5210      0.000000
     2.5215      0.000450
     2.5220      0.000770
     2.5225      0.000730
     2.5230      0.000400
     2.5235      0.000290
     2.5240      0.000250
     2.5245      0.000110
     2.5250      0.000090
     2.5255      0.000130
     2.5260      0.000000
     2.5265      0.000000
     2.5270      0.000000
     2.5275      0.000100
     2.5280      0.000190
     2.5285      0.000140
     2.5290      0.000010
     2.5295      0.000000
     2.5300      0.000180
     2.5305      0.000240
     2.5310      0.000060
     2.5315      0.000000
     2.5320      0.000020
     2.5325      0.000180
     2.5330      0.000170
     2.5335      0.000000
     2.5340      0.000000
     2.5345      0.000000
     2.5350      0.000000
     2.5355      0.000120
     2.5360      0.000460
     2.5365      0.001030
     2.5370      0.000720
     2.5375      0.000230
     2.5380      0.000000
     2.5385      0.000010
     2.5390      0.000020
     2.5395      0.000000
     2.5400      0.000000
     2.5405      0.000010
     2.5410      0.000100
     2.5415      0.000360
     2.5420      0.000700
     2.5425      0.000610
     2.5430      0.000420
     2.5435      0.000320
     2.5440      0.000360
     2.5445      0.000140
     2.5450      0.000030
     2.5455      0.000000
     2.5460      0.000000
     2.5465      0.000000
     2.5470      0.000000
     2.5475      0.000000
     2.5480      0.000000
     2.5485      0.000050
     2.5490      0.000160
     2.5495      0.000020
     2.5500      0.000000
     2.5505      0.000000
     2.5510      0.000000
     2.5515      0.000000
     2.5520      0.000000
     2.5525      0.000000
     2.5530      0.000000
     2.5535      0.000000
     2.5540      0.000000
     2.5545      0.000000
     2.5550      0.000000
     2.5555      0.000000
     2.5560      0.000000
     2.5565      0.000000
     2.5570      0.000000
     2.5575      0.000000
     2.5580      0.000000
     2.5585      0.000000
     2.5590      0.000000
     2.5595      0.000320
     2.5600      0.000190
     2.5605      0.000010
     2.5610      0.000000
     2.5615      0.000000
     2.5620      0.000000
     2.5625      0.000000
     2.5630      0.000040
     2.5635      0.000100
     2.5640      0.000010
     2.5645      0.000000
     2.5650      0.000000
     2.5655      0.000000
     2.5660      0.000000
     2.5665      0.000000
     2.5670      0.000000
     2.5675      0.000000
     2.5680      0.000000
     2.5685      0.000000
     2.5690      0.000000
     2.5695      0.000000
     2.5700      0.000000
     2.5705      0.000000
     2.5710      0.000000
     2.5715      0.000000
     2.5720      0.000000
     2.5725      0.000000
     2.5730      0.000000
     2.5735      0.000000
     2.5740      0.000000
     2.5745      0.000000
     2.5750      0.000000
     2.5755      0.000000
     2.5760      0.000000
     2.5765      0.000000
     2.5770      0.000000
     2.5775      0.000000
     2.5780      0.000000
     2.5785      0.000000
     2.5790      0.000000
     2.5795      0.000000
     2.5800      0.000000
     2.5805      0.000000
     2.5810      0.000000
     2.5815      0.000000
     2.5820      0.000000
     2.5825      0.000000
     2.5830      0.000000
     2.5835      0.000000
     2.5840      0.000000
     2.5845      0.000000
     2.5850      0.000000
     2.5855      0.000000
     2.5860      0.000000
     2.5865      0.000000
     2.5870      0.000000
     2.5875      0.000000
     2.5880      0.000000
     2.5885      0.000000
     2.5890      0.000000
     2.5895      0.000000
     2.5900      0.000000
     2.5905      0.000000
     2.5910      0.000000
     2.5915      0.000000
     2.5920      0.000000
     2.5925      0.000000
     2.5930      0.000000
     2.5935      0.000000
     2.5940      0.000000
     2.5945      0.000000
     2.5950      0.000000
     2.5955      0.000000
     2.5960      0.000000
     2.5965      0.000050
     2.5970      0.000180
     2.5975      0.000370
     2.5980      0.000070
     2.5985      0.000000
     2.5990      0.000000
     2.5995      0.000000
     2.6000      0.000000
     2.6005      0.000000
     2.6010      0.000000
     2.6015      0.000000
     2.6020      0.000000
     2.6025      0.000060
     2.6030      0.000050
     2.6035      0.000000
     2.6040      0.000000
     2.6045      0.000000
     2.6050      0.000000
     2.6055      0.000000
     2.6060      0.000000
     2.6065      0.000000
     2.6070      0.000000
     2.6075      0.000080
     2.6080      0.000180
     2.6085      0.000020
     2.6090      0.000000
     2.6095      0.000000
     2.6100      0.000000
     2.6105      0.000000
     2.6110      0.000000
     2.6115      0.000000
     2.6120      0.000000
     2.6125      0.000000
     2.6130      0.000000
     2.6135      0.000000
     2.6140      0.000000
     2.6145      0.000000
     2.6150      0.000000
     2.6155      0.000000
     2.6160      0.000000
     2.6165      0.000000
     2.6170      0.000000
     2.6175      0.000000
     2.6180      0.000000
     2.6185      0.000000
     2.6190      0.000000
     2.6195      0.000000
     2.6200      0.000000
     2.6205      0.000000
     2.6210      0.000000
     2.6215      0.000000
     2.6220      0.000000
     2.6225      0.000010
     2.6230      0.000060
     2.6235      0.000020
     2.6240      0.000000
     2.6245      0.000000
     2.6250      0.000000
     2.6255      0.000000
     2.6260      0.000000
     2.6265      0.000000
     2.6270      0.000000
     2.6275      0.000000
     2.6280      0.000000
     2.6285      0.000000
     2.6290      0.000000
     2.6295      0.000000
     2.6300      0.000000
     2.6305      0.000000
     2.6310      0.000000
     2.6315      0.000000
     2.6320      0.000000
     2.6325      0.000000
     2.6330      0.000000
     2.6335      0.000000
     2.6340      0.000000
     2.6345      0.000000
     2.6350      0.000000
     2.6355      0.000000
     2.6360      0.000000
     2.6365      0.000000
     2.6370      0.000000
     2.6375      0.000130
     2.6380      0.000220
     2.6385      0.000200
     2.6390      0.000040
     2.6395      0.000000
     2.6400      0.000000
     2.6405      0.000010
     2.6410      0.000000
     2.6415      0.000000
     2.6420      0.000000
     2.6425      0.000000
     2.6430      0.000000
     2.6435      0.000000
     2.6440      0.000000
     2.6445      0.000000
     2.6450      0.000000
     2.6455      0.000010
     2.6460      0.000020
     2.6465      0.000000
     2.6470      0.000000
     2.6475      0.000000
     2.6480      0.000000
     2.6485      0.000000
     2.6490      0.000000
     2.6495      0.000000
     2.6500      0.000010
     2.6505      0.000050
     2.6510      0.000360
     2.6515      0.000450
     2.6520      0.000240
     2.6525      0.000120
     2.6530      0.000190
     2.6535      0.000210
     2.6540      0.000080
     2.6545      0.000020
     2.6550      0.000000
     2.6555      0.000000
     2.6560      0.000000
     2.6565      0.000000
     2.6570      0.000000
     2.6575      0.000000
     2.6580      0.000000
     2.6585      0.000420
     2.6590      0.000750
     2.6595      0.000910
     2.6600      0.000760
     2.6605      0.000310
     2.6610      0.000000
     2.6615      0.000000
     2.6620      0.000000
     2.6625      0.000080
     2.6630      0.000190
     2.6635      0.000280
     2.6640      0.000170
     2.6645      0.000190
     2.6650      0.000350
     2.6655      0.000700
     2.6660      0.000780
     2.6665      0.000650
     2.6670      0.000360
     2.6675      0.000100
     2.6680      0.000060
     2.6685      0.000140
     2.6690      0.000300
     2.6695      0.000160
     2.6700      0.000060
     2.6705      0.000000
     2.6710      0.000000
     2.6715      0.000000
     2.6720      0.000000
     2.6725      0.000040
     2.6730      0.000350
     2.6735      0.000920
     2.6740      0.001310
     2.6745      0.001210
     2.6750      0.000770
     2.6755      0.000750
     2.6760      0.001040
     2.6765      0.001480
     2.6770      0.001710
     2.6775      0.001770
     2.6780      0.001640
     2.6785      0.001410
     2.6790      0.001380
     2.6795      0.001470
     2.6800      0.001620
     2.6805      0.001570
     2.6810      0.001400
     2.6815      0.001200
     2.6820      0.001290
     2.6825      0.001560
     2.6830      0.001760
     2.6835      0.001740
     2.6840      0.001580
     2.6845      0.001610
     2.6850      0.001810
     2.6855      0.002130
     2.6860      0.001930
     2.6865      0.001510
     2.6870      0.001000
     2.6875      0.001440
     2.6880      0.002080
     2.6885      0.002630
     2.6890      0.002620
     2.6895      0.002610
     2.6900      0.002750
     2.6905      0.003060
     2.6910      0.002920
     2.6915      0.002660
     2.6920      0.002420
     2.6925      0.002410
     2.6930      0.002500
     2.6935      0.002650
     2.6940      0.002840
     2.6945      0.002700
     2.6950      0.002460
     2.6955      0.002330
     2.6960      0.002620
     2.6965      0.002990
     2.6970      0.003320
     2.6975      0.003590
     2.6980      0.003830
     2.6985      0.004230
     2.6990      0.004760
     2.6995      0.005400
     2.7000      0.005080
     2.7005      0.004540
     2.7010      0.004000
     2.7015      0.004600
     2.7020      0.004870
     2.7025      0.004910
     2.7030      0.004810
     2.7035      0.005480
     2.7040      0.006140
     2.7045      0.006500
     2.7050      0.006090
     2.7055      0.005690
     2.7060      0.005360
     2.7065      0.005270
     2.7070      0.005390
     2.7075      0.005510
     2.7080      0.005530
     2.7085      0.006080
     2.7090      0.007070
     2.7095      0.008320
     2.7100      0.008440
     2.7105      0.007670
     2.7110      0.006720
     2.7115      0.006520
     2.7120      0.007140
     2.7125      0.007710
     2.7130      0.007970
     2.7135      0.007890
     2.7140      0.008200
     2.7145      0.008850
     2.7150      0.009900
     2.7155      0.010660
     2.7160      0.011140
     2.7165      0.011210
     2.7170      0.011140
     2.7175      0.011190
     2.7180      0.011400
     2.7185      0.012010
     2.7190      0.012620
     2.7195      0.013140
     2.7200      0.013310
     2.7205      0.013480
     2.7210      0.013740
     2.7215      0.014160
     2.7220      0.014770
     2.7225      0.015390
     2.7230      0.015980
     2.7235      0.016210
     2.7240      0.016460
     2.7245      0.016800
     2.7250      0.017410
     2.7255      0.018230
     2.7260      0.019250
     2.7265      0.020520
     2.7270      0.021300
     2.7275      0.021790
     2.7280      0.022030
     2.7285      0.023220
     2.7290      0.024460
     2.7295      0.025570
     2.7300      0.025830
     2.7305      0.026480
     2.7310      0.027300
     2.7315      0.028110
     2.7320      0.028130
     2.7325      0.028460
     2.7330      0.029480
     2.7335      0.031380
     2.7340      0.032820
     2.7345      0.033760
     2.7350      0.034150
     2.7355      0.034740
     2.7360      0.035510
     2.7365      0.036660
     2.7370      0.037950
     2.7375      0.039220
     2.7380      0.040390
     2.7385      0.041250
     2.7390      0.042030
     2.7395      0.042760
     2.7400      0.044010
     2.7405      0.045330
     2.7410      0.046680
     2.7415      0.047860
     2.7420      0.049320
     2.7425      0.050980
     2.7430      0.052670
     2.7435      0.053990
     2.7440      0.055160
     2.7445      0.056330
     2.7450      0.057660
     2.7455      0.058920
     2.7460      0.059970
     2.7465      0.061050
     2.7470      0.062540
     2.7475      0.064560
     2.7480      0.066580
     2.7485      0.068110
     2.7490      0.069250
     2.7495      0.070640
     2.7500      0.072170
     2.7505      0.073780
     2.7510      0.075350
     2.7515      0.077110
     2.7520      0.078820
     2.7525      0.080120
     2.7530      0.081450
     2.7535      0.082990
     2.7540      0.084980
     2.7545      0.087140
     2.7550      0.089200
     2.7555      0.091090
     2.7560      0.092190
     2.7565      0.093410
     2.7570      0.094830
     2.7575      0.096730
     2.7580      0.098350
     2.7585      0.099770
     2.7590      0.101780
     2.7595      0.104100
     2.7600      0.106510
     2.7605      0.108170
     2.7610      0.109550
     2.7615      0.110860
     2.7620      0.112540
     2.7625      0.114520
     2.7630      0.116610
     2.7635      0.118650
     2.7640      0.120530
     2.7645      0.122320
     2.7650      0.124040
     2.7655      0.126030
     2.7660      0.128150
     2.7665      0.130410
     2.7670      0.132240
     2.7675      0.134130
     2.7680      0.136180
     2.7685      0.138790
     2.7690      0.141050
     2.7695      0.142790
     2.7700      0.144120
     2.7705      0.145950
     2.7710      0.148320
     2.7715      0.150600
     2.7720      0.152680
     2.7725      0.154610
     2.7730      0.157400
     2.7735      0.160190
     2.7740      0.162920
     2.7745      0.164780
     2.7750      0.166810
     2.7755      0.169040
     2.7760      0.171970
     2.7765      0.174940
     2.7770      0.177900
     2.7775      0.180600
     2.7780      0.183170
     2.7785      0.185630
     2.7790      0.187960
     2.7795      0.190380
     2.7800      0.192960
     2.7805      0.196110
     2.7810      0.199210
     2.7815      0.202240
     2.7820      0.205020
     2.7825      0.208080
     2.7830      0.211160
     2.7835      0.213850
     2.7840      0.216400
     2.7845      0.219040
     2.7850      0.222250
     2.7855      0.225300
     2.7860      0.228290
     2.7865      0.231290
     2.7870      0.234700
     2.7875      0.238200
     2.7880      0.241480
     2.7885      0.244530
     2.7890      0.247610
     2.7895      0.251090
     2.7900      0.254730
     2.7905      0.258330
     2.7910      0.261590
     2.7915      0.264540
     2.7920      0.267440
     2.7925      0.270610
     2.7930      0.274350
     2.7935      0.278320
     2.7940      0.282370
     2.7945      0.286150
     2.7950      0.289730
     2.7955      0.292920
     2.7960      0.296210
     2.7965      0.299670
     2.7970      0.303600
     2.7975      0.307140
     2.7980      0.310450
     2.7985      0.313530
     2.7990      0.316880
     2.7995      0.320350
     2.8000      0.323730
     2.8005      0.327240
     2.8010      0.330820
     2.8015      0.334250
     2.8020      0.337340
     2.8025      0.340240
     2.8030      0.343420
     2.8035      0.346790
     2.8040      0.350280
     2.8045      0.353440
     2.8050      0.356370
     2.8055      0.359130
     2.8060      0.362140
     2.8065      0.365330
     2.8070      0.368690
     2.8075      0.371620
     2.8080      0.374500
     2.8085      0.377330
     2.8090      0.380560
     2.8095      0.383720
     2.8100      0.386750
     2.8105      0.389400
     2.8110      0.391930
     2.8115      0.394330
     2.8120      0.396440
     2.8125      0.398380
     2.8130      0.400040
     2.8135      0.401370
     2.8140      0.402620
     2.8145      0.403880
     2.8150      0.405390
     2.8155      0.407030
     2.8160      0.408820
     2.8165      0.410620
     2.8170      0.412330
     2.8175      0.413670
     2.8180      0.414740
     2.8185      0.415660
     2.8190      0.416630
     2.8195      0.417560
     2.8200      0.418460
     2.8205      0.419150
     2.8210      0.419790
     2.8215      0.420370
     2.8220      0.421010
     2.8225      0.421650
     2.8230      0.422300
     2.8235      0.422560
     2.8240      0.422730
     2.8245      0.422800
     2.8250      0.422940
     2.8255      0.423020
     2.8260      0.422890
     2.8265      0.422400
     2.8270      0.421760
     2.8275      0.420980
     2.8280      0.420570
     2.8285      0.420320
     2.8290      0.419880
     2.8295      0.418940
     2.8300      0.417630
     2.8305      0.416690
     2.8310      0.415860
     2.8315      0.415160
     2.8320      0.413810
     2.8325      0.412390
     2.8330      0.410920
     2.8335      0.409900
     2.8340      0.409070
     2.8345      0.408470
     2.8350      0.407610
     2.8355      0.406550
     2.8360      0.404970
     2.8365      0.403330
     2.8370      0.401690
     2.8375      0.400360
     2.8380      0.399100
     2.8385      0.397910
     2.8390      0.396510
     2.8395      0.395030
     2.8400      0.393440
     2.8405      0.391790
     2.8410      0.390130
     2.8415      0.388470
     2.8420      0.387060
     2.8425      0.385740
     2.8430      0.384450
     2.8435      0.382790
     2.8440      0.380910
     2.8445      0.378900
     2.8450      0.376950
     2.8455      0.375040
     2.8460      0.373280
     2.8465      0.371720
     2.8470      0.370480
     2.8475      0.369060
     2.8480      0.367500
     2.8485      0.365630
     2.8490      0.363860
     2.8495      0.362150
     2.8500      0.360600
     2.8505      0.359110
     2.8510      0.357680
     2.8515      0.355950
     2.8520      0.354120
     2.8525      0.352170
     2.8530      0.350570
     2.8535      0.349030
     2.8540      0.347470
     2.8545      0.345770
     2.8550      0.344050
     2.8555      0.342580
     2.8560      0.341030
     2.8565      0.339430
     2.8570      0.337550
     2.8575      0.336010
     2.8580      0.334930
     2.8585      0.334460
     2.8590      0.333900
     2.8595      0.332880
     2.8600      0.331100
     2.8605      0.328970
     2.8610      0.326660
     2.8615      0.324870
     2.8620      0.323500
     2.8625      0.322920
     2.8630      0.322360
     2.8635      0.321780
     2.8640      0.321000
     2.8645      0.320110
     2.8650      0.319060
     2.8655      0.317910
     2.8660      0.316700
     2.8665      0.315400
     2.8670      0.314140
     2.8675      0.312930
     2.8680      0.311760
     2.8685      0.310560
     2.8690      0.309260
     2.8695      0.308080
     2.8700      0.306980
     2.8705      0.306070
     2.8710      0.305220
     2.8715      0.304420
     2.8720      0.303620
     2.8725      0.302760
     2.8730      0.301820
     2.8735      0.301180
     2.8740      0.300600
     2.8745      0.299840
     2.8750      0.298840
     2.8755      0.297660
     2.8760      0.296990
     2.8765      0.296250
     2.8770      0.295390
     2.8775      0.294730
     2.8780      0.294250
     2.8785      0.294330
     2.8790      0.293950
     2.8795      0.293260
     2.8800      0.292410
     2.8805      0.291690
     2.8810      0.291190
     2.8815      0.290690
     2.8820      0.290230
     2.8825      0.289950
     2.8830      0.289520
     2.8835      0.288970
     2.8840      0.288350
     2.8845      0.287820
     2.8850      0.287410
     2.8855      0.287030
     2.8860      0.286760
     2.8865      0.286910
     2.8870      0.286870
     2.8875      0.286680
     2.8880      0.285720
     2.8885      0.285010
     2.8890      0.284840
     2.8895      0.285150
     2.8900      0.285540
     2.8905      0.285310
     2.8910      0.285080
     2.8915      0.284850
     2.8920      0.284820
     2.8925      0.284680
     2.8930      0.284230
     2.8935      0.283950
     2.8940      0.283790
     2.8945      0.284110
     2.8950      0.284410
     2.8955      0.284690
     2.8960      0.284920
     2.8965      0.285140
     2.8970      0.285400
     2.8975      0.285740
     2.8980      0.286150
     2.8985      0.286550
     2.8990      0.286800
     2.8995      0.286760
     2.9000      0.286510
     2.9005      0.286260
     2.9010      0.286520
     2.9015      0.287000
     2.9020      0.287710
     2.9025      0.287990
     2.9030      0.288200
     2.9035      0.288400
     2.9040      0.288720
     2.9045      0.289110
     2.9050      0.289180
     2.9055      0.289420
     2.9060      0.289940
     2.9065      0.290700
     2.9070      0.291490
     2.9075      0.291740
     2.9080      0.292040
     2.9085      0.292400
     2.9090      0.293390
     2.9095      0.294530
     2.9100      0.295850
     2.9105      0.297110
     2.9110      0.298320
     2.9115      0.299380
     2.9120      0.300310
     2.9125      0.300970
     2.9130      0.301570
     2.9135      0.302140
     2.9140      0.302860
     2.9145      0.303670
     2.9150      0.304600
     2.9155      0.305830
     2.9160      0.307110
     2.9165      0.308160
     2.9170      0.309060
     2.9175      0.309780
     2.9180      0.310760
     2.9185      0.311840
     2.9190      0.313160
     2.9195      0.314650
     2.9200      0.316250
     2.9205      0.317670
     2.9210      0.318990
     2.9215      0.320100
     2.9220      0.321090
     2.9225      0.322010
     2.9230      0.323000
     2.9235      0.324270
     2.9240      0.326150
     2.9245      0.328140
     2.9250      0.330170
     2.9255      0.331630
     2.9260      0.333100
     2.9265      0.334590
     2.9270      0.336130
     2.9275      0.337690
     2.9280      0.339280
     2.9285      0.340940
     2.9290      0.342740
     2.9295      0.344780
     2.9300      0.346930
     2.9305      0.349370
     2.9310      0.351790
     2.9315      0.354160
     2.9320      0.356230
     2.9325      0.358220
     2.9330      0.360110
     2.9335      0.362080
     2.9340      0.364130
     2.9345      0.366170
     2.9350      0.368220
     2.9355      0.370330
     2.9360      0.372550
     2.9365      0.374890
     2.9370      0.377320
     2.9375      0.379750
     2.9380      0.382110
     2.9385      0.384380
     2.9390      0.386570
     2.9395      0.388820
     2.9400      0.391170
     2.9405      0.393940
     2.9410      0.397030
     2.9415      0.400450
     2.9420      0.403750
     2.9425      0.406910
     2.9430      0.409520
     2.9435      0.412410
     2.9440      0.415600
     2.9445      0.419250
     2.9450      0.422880
     2.9455      0.425820
     2.9460      0.428690
     2.9465      0.431470
     2.9470      0.434630
     2.9475      0.437870
     2.9480      0.441070
     2.9485      0.444340
     2.9490      0.447670
     2.9495      0.451260
     2.9500      0.454890
     2.9505      0.458320
     2.9510      0.461490
     2.9515      0.464290
     2.9520      0.467510
     2.9525      0.470930
     2.9530      0.475200
     2.9535      0.479230
     2.9540      0.482840
     2.9545      0.486440
     2.9550      0.490040
     2.9555      0.494260
     2.9560      0.498360
     2.9565      0.502220
     2.9570      0.506310
     2.9575      0.510540
     2.9580      0.515030
     2.9585      0.519330
     2.9590      0.523090
     2.9595      0.526780
     2.9600      0.530430
     2.9605      0.534310
     2.9610      0.538230
     2.9615      0.542170
     2.9620      0.546210
     2.9625      0.550340
     2.9630      0.554280
     2.9635      0.558120
     2.9640      0.561490
     2.9645      0.565160
     2.9650      0.569230
     2.9655      0.573660
     2.9660      0.578220
     2.9665      0.582520
     2.9670      0.586970
     2.9675      0.591720
     2.9680      0.596280
     2.9685      0.600720
     2.9690      0.604410
     2.9695      0.608060
     2.9700      0.611710
     2.9705      0.615450
     2.9710      0.619270
     2.9715      0.623210
     2.9720      0.627160
     2.9725      0.631040
     2.9730      0.635060
     2.9735      0.639280
     2.9740      0.643490
     2.9745      0.647680
     2.9750      0.650910
     2.9755      0.654040
     2.9760      0.656960
     2.9765      0.659890
     2.9770      0.662830
     2.9775      0.665600
     2.9780      0.668330
     2.9785      0.670950
     2.9790      0.673650
     2.9795      0.676450
     2.9800      0.679430
     2.9805      0.682480
     2.9810      0.685510
     2.9815      0.688490
     2.9820      0.691340
     2.9825      0.693500
     2.9830      0.695240
     2.9835      0.696750
     2.9840      0.698390
     2.9845      0.700730
     2.9850      0.702740
     2.9855      0.704360
     2.9860      0.705270
     2.9865      0.705930
     2.9870      0.706890
     2.9875      0.708070
     2.9880      0.709720
     2.9885      0.711070
     2.9890      0.712200
     2.9895      0.712320
     2.9900      0.712270
     2.9905      0.712250
     2.9910      0.712140
     2.9915      0.711900
     2.9920      0.711620
     2.9925      0.711320
     2.9930      0.711380
     2.9935      0.711260
     2.9940      0.710530
     2.9945      0.709630
     2.9950      0.708590
     2.9955      0.707320
     2.9960      0.705970
     2.9965      0.704270
     2.9970      0.702840
     2.9975      0.702020
     2.9980      0.700760
     2.9985      0.699180
     2.9990      0.696550
     2.9995      0.693830
     3.0000      0.691890
     3.0005      0.690260
     3.0010      0.689130
     3.0015      0.687860
     3.0020      0.686500
     3.0025      0.683780
     3.0030      0.680720
     3.0035      0.676690
     3.0040      0.673140
     3.0045      0.670240
     3.0050      0.667820
     3.0055      0.665640
     3.0060      0.663070
     3.0065      0.660510
     3.0070      0.658090
     3.0075      0.655530
     3.0080      0.652800
     3.0085      0.649330
     3.0090      0.645550
     3.0095      0.641780
     3.0100      0.638110
     3.0105      0.634800
     3.0110      0.631250
     3.0115      0.627420
     3.0120      0.623440
     3.0125      0.619380
     3.0130      0.615850
     3.0135      0.612400
     3.0140      0.609160
     3.0145      0.605790
     3.0150      0.602270
     3.0155      0.598590
     3.0160      0.594840
     3.0165      0.591580
     3.0170      0.588380
     3.0175      0.585370
     3.0180      0.582290
     3.0185      0.579130
     3.0190      0.575810
     3.0195      0.572410
     3.0200      0.568370
     3.0205      0.564340
     3.0210      0.560600
     3.0215      0.557030
     3.0220      0.553710
     3.0225      0.550220
     3.0230      0.546630
     3.0235      0.543530
     3.0240      0.540510
     3.0245      0.537570
     3.0250      0.534450
     3.0255      0.531010
     3.0260      0.527530
     3.0265      0.524010
     3.0270      0.520740
     3.0275      0.517550
     3.0280      0.514890
     3.0285      0.512140
     3.0290      0.509180
     3.0295      0.506000
     3.0300      0.502620
     3.0305      0.499560
     3.0310      0.496590
     3.0315      0.493590
     3.0320      0.490560
     3.0325      0.487450
     3.0330      0.484610
     3.0335      0.482140
     3.0340      0.479640
     3.0345      0.477120
     3.0350      0.474170
     3.0355      0.471190
     3.0360      0.468550
     3.0365      0.465870
     3.0370      0.463140
     3.0375      0.460400
     3.0380      0.457660
     3.0385      0.455720
     3.0390      0.454030
     3.0395      0.451890
     3.0400      0.449530
     3.0405      0.446360
     3.0410      0.443470
     3.0415      0.440970
     3.0420      0.438880
     3.0425      0.437010
     3.0430      0.435290
     3.0435      0.433620
     3.0440      0.432190
     3.0445      0.430650
     3.0450      0.428810
     3.0455      0.426730
     3.0460      0.424410
     3.0465      0.422540
     3.0470      0.420860
     3.0475      0.419880
     3.0480      0.418900
     3.0485      0.417560
     3.0490      0.416130
     3.0495      0.414510
     3.0500      0.412980
     3.0505      0.411550
     3.0510      0.409990
     3.0515      0.408390
     3.0520      0.407070
     3.0525      0.405760
     3.0530      0.404500
     3.0535      0.403090
     3.0540      0.401430
     3.0545      0.400030
     3.0550      0.398830
     3.0555      0.397660
     3.0560      0.396500
     3.0565      0.395420
     3.0570      0.394440
     3.0575      0.393990
     3.0580      0.393500
     3.0585      0.392920
     3.0590      0.392410
     3.0595      0.391970
     3.0600      0.391130
     3.0605      0.390160
     3.0610      0.388480
     3.0615      0.386930
     3.0620      0.386630
     3.0625      0.386570
     3.0630      0.387000
     3.0635      0.386840
     3.0640      0.386100
     3.0645      0.385290
     3.0650      0.384450
     3.0655      0.384220
     3.0660      0.384070
     3.0665      0.383970
     3.0670      0.383900
     3.0675      0.383900
     3.0680      0.383860
     3.0685      0.383760
     3.0690      0.383250
     3.0695      0.382500
     3.0700      0.381850
     3.0705      0.381210
     3.0710      0.381450
     3.0715      0.381750
     3.0720      0.382340
     3.0725      0.382840
     3.0730      0.383180
     3.0735      0.383460
     3.0740      0.383690
     3.0745      0.383990
     3.0750      0.384310
     3.0755      0.384500
     3.0760      0.384660
     3.0765      0.384760
     3.0770      0.384930
     3.0775      0.385350
     3.0780      0.385810
     3.0785      0.386340
     3.0790      0.386790
     3.0795      0.387180
     3.0800      0.387920
     3.0805      0.388770
     3.0810      0.389780
     3.0815      0.390720
     3.0820      0.391020
     3.0825      0.391360
     3.0830      0.391830
     3.0835      0.392560
     3.0840      0.393610
     3.0845      0.394720
     3.0850      0.395860
     3.0855      0.397060
     3.0860      0.398280
     3.0865      0.399100
     3.0870      0.399890
     3.0875      0.400690
     3.0880      0.401590
     3.0885      0.402790
     3.0890      0.403900
     3.0895      0.404880
     3.0900      0.406180
     3.0905      0.407710
     3.0910      0.409530
     3.0915      0.411450
     3.0920      0.412840
     3.0925      0.414170
     3.0930      0.415810
     3.0935      0.417530
     3.0940      0.419550
     3.0945      0.421450
     3.0950      0.423110
     3.0955      0.424760
     3.0960      0.426400
     3.0965      0.428000
     3.0970      0.429580
     3.0975      0.430980
     3.0980      0.432330
     3.0985      0.433830
     3.0990      0.435370
     3.0995      0.437160
     3.1000      0.438990
     3.1005      0.440910
     3.1010      0.442910
     3.1015      0.445030
     3.1020      0.447380
     3.1025      0.449920
     3.1030      0.452570
     3.1035      0.455280
     3.1040      0.457790
     3.1045      0.460270
     3.1050      0.462440
     3.1055      0.464620
     3.1060      0.466860
     3.1065      0.469200
     3.1070      0.471830
     3.1075      0.474480
     3.1080      0.477150
     3.1085      0.479890
     3.1090      0.482690
     3.1095      0.485730
     3.1100      0.488880
     3.1105      0.491650
     3.1110      0.494330
     3.1115      0.496750
     3.1120      0.499210
     3.1125      0.502460
     3.1130      0.505700
     3.1135      0.508860
     3.1140      0.511860
     3.1145      0.514520
     3.1150      0.517430
     3.1155      0.520660
     3.1160      0.523720
     3.1165      0.526680
     3.1170      0.529370
     3.1175      0.531950
     3.1180      0.535350
     3.1185      0.538910
     3.1190      0.542810
     3.1195      0.546680
     3.1200      0.550110
     3.1205      0.553470
     3.1210      0.556540
     3.1215      0.559530
     3.1220      0.562360
     3.1225      0.565570
     3.1230      0.569250
     3.1235      0.573490
     3.1240      0.578150
     3.1245      0.582040
     3.1250      0.585590
     3.1255      0.588540
     3.1260      0.591350
     3.1265      0.595090
     3.1270      0.598910
     3.1275      0.602660
     3.1280      0.606330
     3.1285      0.609490
     3.1290      0.612610
     3.1295      0.615640
     3.1300      0.618670
     3.1305      0.621700
     3.1310      0.625020
     3.1315      0.628670
     3.1320      0.632380
     3.1325      0.636130
     3.1330      0.639730
     3.1335      0.643250
     3.1340      0.646810
     3.1345      0.650370
     3.1350      0.653580
     3.1355      0.656760
     3.1360      0.659810
     3.1365      0.662900
     3.1370      0.666210
     3.1375      0.669520
     3.1380      0.672850
     3.1385      0.676000
     3.1390      0.678760
     3.1395      0.681390
     3.1400      0.683850
     3.1405      0.686680
     3.1410      0.689850
     3.1415      0.692980
     3.1420      0.696080
     3.1425      0.698520
     3.1430      0.700680
     3.1435      0.702530
     3.1440      0.704300
     3.1445      0.706070
     3.1450      0.707840
     3.1455      0.710120
     3.1460      0.712430
     3.1465      0.714910
     3.1470      0.717210
     3.1475      0.718660
     3.1480      0.719980
     3.1485      0.720980
     3.1490      0.722240
     3.1495      0.723990
     3.1500      0.725610
     3.1505      0.727060
     3.1510      0.727770
     3.1515      0.727820
     3.1520      0.727860
     3.1525      0.727900
     3.1530      0.728420
     3.1535      0.729150
     3.1540      0.729380
     3.1545      0.729470
     3.1550      0.729120
     3.1555      0.728700
     3.1560      0.728700
     3.1565      0.728730
     3.1570      0.728670
     3.1575      0.728560
     3.1580      0.727950
     3.1585      0.727260
     3.1590      0.726110
     3.1595      0.724860
     3.1600      0.723330
     3.1605      0.721860
     3.1610      0.720560
     3.1615      0.719300
     3.1620      0.718080
     3.1625      0.716620
     3.1630      0.714870
     3.1635      0.713020
     3.1640      0.711090
     3.1645      0.709180
     3.1650      0.707270
     3.1655      0.704730
     3.1660      0.701880
     3.1665      0.698620
     3.1670      0.695210
     3.1675      0.692370
     3.1680      0.689680
     3.1685      0.686900
     3.1690      0.684110
     3.1695      0.681090
     3.1700      0.678050
     3.1705      0.675580
     3.1710      0.673090
     3.1715      0.670180
     3.1720      0.667200
     3.1725      0.663620
     3.1730      0.660090
     3.1735      0.656790
     3.1740      0.653520
     3.1745      0.650350
     3.1750      0.647070
     3.1755      0.643490
     3.1760      0.639750
     3.1765      0.635690
     3.1770      0.631720
     3.1775      0.627870
     3.1780      0.624110
     3.1785      0.620430
     3.1790      0.616540
     3.1795      0.612420
     3.1800      0.608530
     3.1805      0.604840
     3.1810      0.601370
     3.1815      0.598030
     3.1820      0.594450
     3.1825      0.590740
     3.1830      0.587220
     3.1835      0.583800
     3.1840      0.580080
     3.1845      0.576270
     3.1850      0.571900
     3.1855      0.567380
     3.1860      0.563530
     3.1865      0.559820
     3.1870      0.556590
     3.1875      0.553440
     3.1880      0.550110
     3.1885      0.546760
     3.1890      0.542990
     3.1895      0.539200
     3.1900      0.534770
     3.1905      0.530360
     3.1910      0.526700
     3.1915      0.523080
     3.1920      0.520240
     3.1925      0.517310
     3.1930      0.513640
     3.1935      0.509970
     3.1940      0.506310
     3.1945      0.502780
     3.1950      0.499920
     3.1955      0.496970
     3.1960      0.493700
     3.1965      0.490340
     3.1970      0.486690
     3.1975      0.483120
     3.1980      0.479760
     3.1985      0.476520
     3.1990      0.473580
     3.1995      0.470740
     3.2000      0.468120
     3.2005      0.465330
     3.2010      0.462180
     3.2015      0.458930
     3.2020      0.455480
     3.2025      0.452230
     3.2030      0.449280
     3.2035      0.446510
     3.2040      0.443990
     3.2045      0.441660
     3.2050      0.439590
     3.2055      0.437440
     3.2060      0.435170
     3.2065      0.432570
     3.2070      0.429580
     3.2075      0.426610
     3.2080      0.423670
     3.2085      0.421010
     3.2090      0.418650
     3.2095      0.416460
     3.2100      0.414430
     3.2105      0.412350
     3.2110      0.410230
     3.2115      0.407860
     3.2120      0.405280
     3.2125      0.402550
     3.2130      0.399670
     3.2135      0.397200
     3.2140      0.395060
     3.2145      0.393250
     3.2150      0.391730
     3.2155      0.390120
     3.2160      0.388460
     3.2165      0.386730
     3.2170      0.384950
     3.2175      0.383000
     3.2180      0.380910
     3.2185      0.379060
     3.2190      0.377390
     3.2195      0.375870
     3.2200      0.374470
     3.2205      0.372470
     3.2210      0.370040
     3.2215      0.367590
     3.2220      0.365130
     3.2225      0.363180
     3.2230      0.361600
     3.2235      0.360250
     3.2240      0.359080
     3.2245      0.358030
     3.2250      0.357060
     3.2255      0.356000
     3.2260      0.354880
     3.2265      0.353640
     3.2270      0.352300
     3.2275      0.351050
     3.2280      0.349860
     3.2285      0.348720
     3.2290      0.347630
     3.2295      0.346490
     3.2300      0.345340
     3.2305      0.344220
     3.2310      0.343150
     3.2315      0.342120
     3.2320      0.341130
     3.2325      0.340160
     3.2330      0.339180
     3.2335      0.338040
     3.2340      0.336700
     3.2345      0.335320
     3.2350      0.333890
     3.2355      0.332780
     3.2360      0.332090
     3.2365      0.331420
     3.2370      0.330790
     3.2375      0.330080
     3.2380      0.329270
     3.2385      0.328630
     3.2390      0.328300
     3.2395      0.327850
     3.2400      0.327190
     3.2405      0.326410
     3.2410      0.325400
     3.2415      0.324580
     3.2420      0.324190
     3.2425      0.323810
     3.2430      0.323430
     3.2435      0.323010
     3.2440      0.322440
     3.2445      0.322000
     3.2450      0.322000
     3.2455      0.321930
     3.2460      0.321580
     3.2465      0.321150
     3.2470      0.320230
     3.2475      0.319380
     3.2480      0.318930
     3.2485      0.318500
     3.2490      0.318160
     3.2495      0.317840
     3.2500      0.317760
     3.2505      0.317680
     3.2510      0.318110
     3.2515      0.318540
     3.2520      0.318600
     3.2525      0.318660
     3.2530      0.318360
     3.2535      0.318040
     3.2540      0.317940
     3.2545      0.317860
     3.2550      0.318030
     3.2555      0.318240
     3.2560      0.318410
     3.2565      0.318570
     3.2570      0.318540
     3.2575      0.318440
     3.2580      0.318240
     3.2585      0.318000
     3.2590      0.318080
     3.2595      0.318320
     3.2600      0.318810
     3.2605      0.319450
     3.2610      0.319850
     3.2615      0.320050
     3.2620      0.320150
     3.2625      0.320140
     3.2630      0.320090
     3.2635      0.320000
     3.2640      0.320070
     3.2645      0.320370
     3.2650      0.320950
     3.2655      0.322000
     3.2660      0.322930
     3.2665      0.323550
     3.2670      0.324100
     3.2675      0.324400
     3.2680      0.324720
     3.2685      0.325140
     3.2690      0.325570
     3.2695      0.325970
     3.2700      0.326390
     3.2705      0.327080
     3.2710      0.327780
     3.2715      0.328530
     3.2720      0.329290
     3.2725      0.330240
     3.2730      0.331200
     3.2735      0.332320
     3.2740      0.333480
     3.2745      0.334290
     3.2750      0.335010
     3.2755      0.335620
     3.2760      0.336200
     3.2765      0.336980
     3.2770      0.337870
     3.2775      0.338850
     3.2780      0.339900
     3.2785      0.340910
     3.2790      0.341900
     3.2795      0.342940
     3.2800      0.344070
     3.2805      0.345180
     3.2810      0.346260
     3.2815      0.347300
     3.2820      0.348210
     3.2825      0.349180
     3.2830      0.350340
     3.2835      0.351490
     3.2840      0.352570
     3.2845      0.353650
     3.2850      0.354700
     3.2855      0.355750
     3.2860      0.357280
     3.2865      0.358810
     3.2870      0.360330
     3.2875      0.361840
     3.2880      0.363220
     3.2885      0.364560
     3.2890      0.366010
     3.2895      0.367500
     3.2900      0.369000
     3.2905      0.370490
     3.2910      0.371980
     3.2915      0.373450
     3.2920      0.375100
     3.2925      0.376980
     3.2930      0.378970
     3.2935      0.381190
     3.2940      0.383200
     3.2945      0.384680
     3.2950      0.386060
     3.2955      0.387000
     3.2960      0.387990
     3.2965      0.389550
     3.2970      0.391110
     3.2975      0.393110
     3.2980      0.395120
     3.2985      0.397280
     3.2990      0.399470
     3.2995      0.401810
     3.3000      0.404200
     3.3005      0.406520
     3.3010      0.408830
     3.3015      0.410960
     3.3020      0.412990
     3.3025      0.414840
     3.3030      0.416500
     3.3035      0.418280
     3.3040      0.420240
     3.3045      0.422330
     3.3050      0.424770
     3.3055      0.427120
     3.3060      0.429020
     3.3065      0.430890
     3.3070      0.432460
     3.3075      0.434030
     3.3080      0.436090
     3.3085      0.438170
     3.3090      0.440420
     3.3095      0.442700
     3.3100      0.445180
     3.3105      0.447730
     3.3110      0.450440
     3.3115      0.453250
     3.3120      0.455970
     3.3125      0.458610
     3.3130      0.461250
     3.3135      0.463910
     3.3140      0.466520
     3.3145      0.469010
     3.3150      0.471510
     3.3155      0.474060
     3.3160      0.476630
     3.3165      0.479370
     3.3170      0.482110
     3.3175      0.484460
     3.3180      0.486780
     3.3185      0.489220
     3.3190      0.491710
     3.3195      0.494290
     3.3200      0.496930
     3.3205      0.499360
     3.3210      0.501600
     3.3215      0.503940
     3.3220      0.506420
     3.3225      0.509010
     3.3230      0.511870
     3.3235      0.514660
     3.3240      0.517060
     3.3245      0.519440
     3.3250      0.521280
     3.3255      0.523120
     3.3260      0.525630
     3.3265      0.528230
     3.3270      0.531210
     3.3275      0.534320
     3.3280      0.537080
     3.3285      0.539640
     3.3290      0.542170
     3.3295      0.544660
     3.3300      0.547120
     3.3305      0.549520
     3.3310      0.551960
     3.3315      0.554550
     3.3320      0.557190
     3.3325      0.560310
     3.3330      0.563440
     3.3335      0.566340
     3.3340      0.569230
     3.3345      0.571940
     3.3350      0.574600
     3.3355      0.577090
     3.3360      0.579500
     3.3365      0.581780
     3.3370      0.583930
     3.3375      0.586090
     3.3380      0.588290
     3.3385      0.590490
     3.3390      0.592700
     3.3395      0.594910
     3.3400      0.597190
     3.3405      0.599470
     3.3410      0.601530
     3.3415      0.603560
     3.3420      0.605570
     3.3425      0.607570
     3.3430      0.609890
     3.3435      0.612450
     3.3440      0.614850
     3.3445      0.617040
     3.3450      0.619010
     3.3455      0.620370
     3.3460      0.621770
     3.3465      0.623480
     3.3470      0.625190
     3.3475      0.626970
     3.3480      0.628760
     3.3485      0.629920
     3.3490      0.630910
     3.3495      0.631860
     3.3500      0.632790
     3.3505      0.633940
     3.3510      0.635360
     3.3515      0.636780
     3.3520      0.638200
     3.3525      0.639580
     3.3530      0.640660
     3.3535      0.641730
     3.3540      0.642860
     3.3545      0.643990
     3.3550      0.645180
     3.3555      0.646390
     3.3560      0.647270
     3.3565      0.647960
     3.3570      0.648530
     3.3575      0.648960
     3.3580      0.649370
     3.3585      0.649730
     3.3590      0.650070
     3.3595      0.650210
     3.3600      0.650360
     3.3605      0.650430
     3.3610      0.650510
     3.3615      0.650570
     3.3620      0.650630
     3.3625      0.650840
     3.3630      0.651170
     3.3635      0.651490
     3.3640      0.651800
     3.3645      0.651910
     3.3650      0.651240
     3.3655      0.650560
     3.3660      0.649160
     3.3665      0.647770
     3.3670      0.646870
     3.3675      0.646070
     3.3680      0.645630
     3.3685      0.645410
     3.3690      0.644960
     3.3695      0.644250
     3.3700      0.643420
     3.3705      0.642240
     3.3710      0.641040
     3.3715      0.639500
     3.3720      0.637970
     3.3725      0.636380
     3.3730      0.634790
     3.3735      0.633560
     3.3740      0.632500
     3.3745      0.631340
     3.3750      0.630060
     3.3755      0.628610
     3.3760      0.626780
     3.3765      0.624970
     3.3770      0.623470
     3.3775      0.621970
     3.3780      0.620500
     3.3785      0.619040
     3.3790      0.616960
     3.3795      0.614620
     3.3800      0.612250
     3.3805      0.609850
     3.3810      0.607660
     3.3815      0.605990
     3.3820      0.604310
     3.3825      0.602520
     3.3830      0.600730
     3.3835      0.599160
     3.3840      0.597620
     3.3845      0.596570
     3.3850      0.595760
     3.3855      0.594630
     3.3860      0.593100
     3.3865      0.591250
     3.3870      0.588410
     3.3875      0.585560
     3.3880      0.582560
     3.3885      0.579570
     3.3890      0.577370
     3.3895      0.575340
     3.3900      0.573550
     3.3905      0.571920
     3.3910      0.570040
     3.3915      0.567780
     3.3920      0.565490
     3.3925      0.563060
     3.3930      0.560640
     3.3935      0.558170
     3.3940      0.555710
     3.3945      0.553140
     3.3950      0.550540
     3.3955      0.548130
     3.3960      0.545890
     3.3965      0.543680
     3.3970      0.541530
     3.3975      0.539370
     3.3980      0.537200
     3.3985      0.535030
     3.3990      0.532750
     3.3995      0.530440
     3.4000      0.527810
     3.4005      0.524970
     3.4010      0.522390
     3.4015      0.520250
     3.4020      0.518180
     3.4025      0.516560
     3.4030      0.514950
     3.4035      0.512290
     3.4040      0.509530
     3.4045      0.506770
     3.4050      0.504010
     3.4055      0.501730
     3.4060      0.500060
     3.4065      0.498440
     3.4070      0.497000
     3.4075      0.495560
     3.4080      0.493860
     3.4085      0.492150
     3.4090      0.490000
     3.4095      0.487680
     3.4100      0.485130
     3.4105      0.482330
     3.4110      0.479630
     3.4115      0.477250
     3.4120      0.474860
     3.4125      0.473250
     3.4130      0.471650
     3.4135      0.470010
     3.4140      0.468360
     3.4145      0.466380
     3.4150      0.464060
     3.4155      0.461740
     3.4160      0.459390
     3.4165      0.457040
     3.4170      0.454780
     3.4175      0.452520
     3.4180      0.450370
     3.4185      0.448260
     3.4190      0.446550
     3.4195      0.445260
     3.4200      0.443920
     3.4205      0.442400
     3.4210      0.440890
     3.4215      0.438720
     3.4220      0.436550
     3.4225      0.434800
     3.4230      0.433200
     3.4235      0.431690
     3.4240      0.430260
     3.4245      0.428850
     3.4250      0.427490
     3.4255      0.426130
     3.4260      0.424960
     3.4265      0.423790
     3.4270      0.422120
     3.4275      0.420210
     3.4280      0.418270
     3.4285      0.416290
     3.4290      0.414370
     3.4295      0.412800
     3.4300      0.411230
     3.4305      0.409680
     3.4310      0.408130
     3.4315      0.406830
     3.4320      0.405700
     3.4325      0.404740
     3.4330      0.404080
     3.4335      0.403420
     3.4340      0.402680
     3.4345      0.401940
     3.4350      0.400620
     3.4355      0.399130
     3.4360      0.397550
     3.4365      0.395870
     3.4370      0.394300
     3.4375      0.393100
     3.4380      0.391900
     3.4385      0.390810
     3.4390      0.389720
     3.4395      0.388830
     3.4400      0.388030
     3.4405      0.387240
     3.4410      0.386460
     3.4415      0.385640
     3.4420      0.384530
     3.4425      0.383430
     3.4430      0.382450
     3.4435      0.381500
     3.4440      0.380630
     3.4445      0.379830
     3.4450      0.379030
     3.4455      0.378240
     3.4460      0.377450
     3.4465      0.376410
     3.4470      0.375350
     3.4475      0.374350
     3.4480      0.373370
     3.4485      0.372590
     3.4490      0.372150
     3.4495      0.371680
     3.4500      0.370830
     3.4505      0.369990
     3.4510      0.368700
     3.4515      0.367290
     3.4520      0.366200
     3.4525      0.365430
     3.4530      0.364730
     3.4535      0.364390
     3.4540      0.364040
     3.4545      0.363060
     3.4550      0.362000
     3.4555      0.360840
     3.4560      0.359600
     3.4565      0.358600
     3.4570      0.358230
     3.4575      0.357870
     3.4580      0.357820
     3.4585      0.357790
     3.4590      0.357700
     3.4595      0.357590
     3.4600      0.357480
     3.4605      0.357390
     3.4610      0.357270
     3.4615      0.356650
     3.4620      0.356030
     3.4625      0.355160
     3.4630      0.354210
     3.4635      0.353380
     3.4640      0.352750
     3.4645      0.352130
     3.4650      0.351710
     3.4655      0.351290
     3.4660      0.350880
     3.4665      0.350470
     3.4670      0.350000
     3.4675      0.349470
     3.4680      0.348950
     3.4685      0.348530
     3.4690      0.348110
     3.4695      0.347890
     3.4700      0.347720
     3.4705      0.347620
     3.4710      0.347610
     3.4715      0.347640
     3.4720      0.347870
     3.4725      0.348100
     3.4730      0.347760
     3.4735      0.347330
     3.4740      0.346400
     3.4745      0.345040
     3.4750      0.343930
     3.4755      0.343700
     3.4760      0.343460
     3.4765      0.344290
     3.4770      0.345250
     3.4775      0.345410
     3.4780      0.344920
     3.4785      0.344250
     3.4790      0.342960
     3.4795      0.341670
     3.4800      0.341980
     3.4805      0.342500
     3.4810      0.343320
     3.4815      0.344410
     3.4820      0.345310
     3.4825      0.345550
     3.4830      0.345790
     3.4835      0.345930
     3.4840      0.346070
     3.4845      0.345960
     3.4850      0.345650
     3.4855      0.345350
     3.4860      0.345090
     3.4865      0.344820
     3.4870      0.345160
     3.4875      0.345620
     3.4880      0.345780
     3.4885      0.345660
     3.4890      0.345490
     3.4895      0.344990
     3.4900      0.344500
     3.4905      0.344450
     3.4910      0.344510
     3.4915      0.344570
     3.4920      0.344630
     3.4925      0.344700
     3.4930      0.344870
     3.4935      0.345050
     3.4940      0.345500
     3.4945      0.346050
     3.4950      0.346440
     3.4955      0.346590
     3.4960      0.346750
     3.4965      0.347010
     3.4970      0.347280
     3.4975      0.347810
     3.4980      0.348470
     3.4985      0.348810
     3.4990      0.348510
     3.4995      0.348200
     3.5000      0.347480
     3.5005      0.346750
     3.5010      0.346620
     3.5015      0.346890
     3.5020      0.347300
     3.5025      0.348150
     3.5030      0.349010
     3.5035      0.349120
     3.5040      0.349120
     3.5045      0.348770
     3.5050      0.348070
     3.5055      0.347470
     3.5060      0.347500
     3.5065      0.347530
     3.5070      0.347430
     3.5075      0.347290
     3.5080      0.347240
     3.5085      0.347320
     3.5090      0.347420
     3.5095      0.348850
     3.5100      0.350290
     3.5105      0.350930
     3.5110      0.351130
     3.5115      0.351030
     3.5120      0.350120
     3.5125      0.349200
     3.5130      0.349730
     3.5135      0.350450
     3.5140      0.351730
     3.5145      0.353580
     3.5150      0.355360
     3.5155      0.356670
     3.5160      0.357970
     3.5165      0.358530
     3.5170      0.358820
     3.5175      0.358920
     3.5180      0.358660
     3.5185      0.358400
     3.5190      0.358530
     3.5195      0.358670
     3.5200      0.359410
     3.5205      0.360600
     3.5210      0.361800
     3.5215      0.363040
     3.5220      0.364280
     3.5225      0.365190
     3.5230      0.366020
     3.5235      0.366630
     3.5240      0.366930
     3.5245      0.367230
     3.5250      0.365780
     3.5255      0.364330
     3.5260      0.362980
     3.5265      0.361700
     3.5270      0.360700
     3.5275      0.360820
     3.5280      0.360930
     3.5285      0.360960
     3.5290      0.360970
     3.5295      0.361350
     3.5300      0.362290
     3.5305      0.363230
     3.5310      0.365090
     3.5315      0.366960
     3.5320      0.368350
     3.5325      0.369420
     3.5330      0.370270
     3.5335      0.370160
     3.5340      0.370050
     3.5345      0.369050
     3.5350      0.367790
     3.5355      0.366480
     3.5360      0.365080
     3.5365      0.363690
     3.5370      0.362770
     3.5375      0.361880
     3.5380      0.361120
     3.5385      0.360470
     3.5390      0.359980
     3.5395      0.360510
     3.5400      0.361050
     3.5405      0.362390
     3.5410      0.364060
     3.5415      0.365240
     3.5420      0.365230
     3.5425      0.365210
     3.5430      0.363930
     3.5435      0.362460
     3.5440      0.362000
     3.5445      0.362750
     3.5450      0.363530
     3.5455      0.365420
     3.5460      0.367310
     3.5465      0.367900
     3.5470      0.367650
     3.5475      0.367260
     3.5480      0.366240
     3.5485      0.365230
     3.5490      0.364900
     3.5495      0.364790
     3.5500      0.364420
     3.5505      0.363480
     3.5510      0.362540
     3.5515      0.360990
     3.5520      0.359360
     3.5525      0.358450
     3.5530      0.358370
     3.5535      0.358290
     3.5540      0.358030
     3.5545      0.357770
     3.5550      0.357050
     3.5555      0.356020
     3.5560      0.355310
     3.5565      0.356490
     3.5570      0.357680
     3.5575      0.358860
     3.5580      0.360040
     3.5585      0.360370
     3.5590      0.358360
     3.5595      0.356340
     3.5600      0.353650
     3.5605      0.350810
     3.5610      0.348810
     3.5615      0.348180
     3.5620      0.347540
     3.5625      0.349060
     3.5630      0.350740
     3.5635      0.351800
     3.5640      0.352190
     3.5645      0.352490
     3.5650      0.350080
     3.5655      0.347660
     3.5660      0.345110
     3.5665      0.342450
     3.5670      0.339860
     3.5675      0.337700
     3.5680      0.335540
     3.5685      0.333790
     3.5690      0.332240
     3.5695      0.330990
     3.5700      0.330840
     3.5705      0.330680
     3.5710      0.331050
     3.5715      0.331580
