# author : Oliver Czoske
# source : Ester Aranzana
# date_created : 2017-11-20
# date_modified : 2025-12-16
# status : Measured at 80 K
# wavelength_unit : um
# changes :
# - 2022-03-17 (KL) Updated to match Rics email
# - 2023-06-06 (RD) Modified profiles after discussion with Schott
# - 2025-12-16 (OC) Replaced with measured values
#
 wavelength  transmission
     0.9990      0.002090
     0.9995      0.002090
     1.0000      0.001420
     1.0005      0.000000
     1.0010      0.006130
     1.0015      0.004000
     1.0020      0.000000
     1.0025      0.004500
     1.0030      0.000160
     1.0035      0.001110
     1.0040      0.001420
     1.0045      0.001070
     1.0050      0.000000
     1.0055      0.002510
     1.0060      0.000190
     1.0065      0.000000
     1.0070      0.000000
     1.0075      0.000000
     1.0080      0.001670
     1.0085      0.000000
     1.0090      0.004300
     1.0095      0.000000
     1.0100      0.000480
     1.0105      0.000000
     1.0110      0.001830
     1.0115      0.006610
     1.0120      0.000540
     1.0125      0.000350
     1.0130      0.002450
     1.0135      0.007070
     1.0140      0.000090
     1.0145      0.002780
     1.0150      0.000420
     1.0155      0.003490
     1.0160      0.000860
     1.0165      0.000000
     1.0170      0.002280
     1.0175      0.000280
     1.0180      0.000000
     1.0185      0.001950
     1.0190      0.003790
     1.0195      0.002200
     1.0200      0.004440
     1.0205      0.000070
     1.0210      0.000000
     1.0215      0.002380
     1.0220      0.000000
     1.0225      0.000020
     1.0230      0.001180
     1.0235      0.002590
     1.0240      0.001260
     1.0245      0.000000
     1.0250      0.000670
     1.0255      0.001430
     1.0260      0.003410
     1.0265      0.004910
     1.0270      0.004350
     1.0275      0.001900
     1.0280      0.000000
     1.0285      0.000000
     1.0290      0.000060
     1.0295      0.000000
     1.0300      0.002280
     1.0305      0.004240
     1.0310      0.000450
     1.0315      0.000090
     1.0320      0.000810
     1.0325      0.001120
     1.0330      0.004480
     1.0335      0.007290
     1.0340      0.000000
     1.0345      0.000000
     1.0350      0.002100
     1.0355      0.007600
     1.0360      0.000000
     1.0365      0.009500
     1.0370      0.001560
     1.0375      0.003360
     1.0380      0.002210
     1.0385      0.000940
     1.0390      0.002570
     1.0395      0.001320
     1.0400      0.002500
     1.0405      0.000000
     1.0410      0.000000
     1.0415      0.002780
     1.0420      0.003440
     1.0425      0.005720
     1.0430      0.001110
     1.0435      0.002170
     1.0440      0.000000
     1.0445      0.002330
     1.0450      0.001740
     1.0455      0.001570
     1.0460      0.002630
     1.0465      0.000000
     1.0470      0.003700
     1.0475      0.000000
     1.0480      0.000000
     1.0485      0.001890
     1.0490      0.002200
     1.0495      0.000010
     1.0500      0.000000
     1.0505      0.003030
     1.0510      0.000000
     1.0515      0.000220
     1.0520      0.000000
     1.0525      0.000840
     1.0530      0.004100
     1.0535      0.002750
     1.0540      0.000000
     1.0545      0.002150
     1.0550      0.003150
     1.0555      0.000780
     1.0560      0.000620
     1.0565      0.000000
     1.0570      0.001730
     1.0575      0.001510
     1.0580      0.001730
     1.0585      0.000000
     1.0590      0.004840
     1.0595      0.000680
     1.0600      0.000000
     1.0605      0.000270
     1.0610      0.000100
     1.0615      0.001140
     1.0620      0.000100
     1.0625      0.004760
     1.0630      0.000710
     1.0635      0.000010
     1.0640      0.000510
     1.0645      0.000000
     1.0650      0.004920
     1.0655      0.000000
     1.0660      0.000310
     1.0665      0.000000
     1.0670      0.000060
     1.0675      0.000290
     1.0680      0.000930
     1.0685      0.000000
     1.0690      0.000180
     1.0695      0.001280
     1.0700      0.000000
     1.0705      0.000000
     1.0710      0.002620
     1.0715      0.001150
     1.0720      0.001360
     1.0725      0.006230
     1.0730      0.001840
     1.0735      0.006100
     1.0740      0.005180
     1.0745      0.000220
     1.0750      0.000590
     1.0755      0.002930
     1.0760      0.000440
     1.0765      0.000340
     1.0770      0.000000
     1.0775      0.001340
     1.0780      0.000000
     1.0785      0.000000
     1.0790      0.001410
     1.0795      0.001150
     1.0800      0.000000
     1.0805      0.001140
     1.0810      0.004730
     1.0815      0.001660
     1.0820      0.003250
     1.0825      0.000550
     1.0830      0.001470
     1.0835      0.000000
     1.0840      0.004110
     1.0845      0.003340
     1.0850      0.000490
     1.0855      0.002200
     1.0860      0.000000
     1.0865      0.000000
     1.0870      0.000420
     1.0875      0.002340
     1.0880      0.000000
     1.0885      0.000050
     1.0890      0.001710
     1.0895      0.002000
     1.0900      0.000230
     1.0905      0.003350
     1.0910      0.003250
     1.0915      0.001330
     1.0920      0.003250
     1.0925      0.004540
     1.0930      0.001220
     1.0935      0.000000
     1.0940      0.002330
     1.0945      0.004270
     1.0950      0.000000
     1.0955      0.001010
     1.0960      0.000000
     1.0965      0.000650
     1.0970      0.000000
     1.0975      0.004180
     1.0980      0.000000
     1.0985      0.000000
     1.0990      0.000730
     1.0995      0.000000
     1.1000      0.000000
     1.1005      0.000000
     1.1010      0.000040
     1.1015      0.000000
     1.1020      0.000000
     1.1025      0.003210
     1.1030      0.006870
     1.1035      0.000000
     1.1040      0.000550
     1.1045      0.000000
     1.1050      0.000230
     1.1055      0.003870
     1.1060      0.000000
     1.1065      0.000130
     1.1070      0.000000
     1.1075      0.001460
     1.1080      0.000480
     1.1085      0.000000
     1.1090      0.000580
     1.1095      0.000000
     1.1100      0.000000
     1.1105      0.000760
     1.1110      0.002260
     1.1115      0.000140
     1.1120      0.000310
     1.1125      0.001050
     1.1130      0.000580
     1.1135      0.001080
     1.1140      0.000280
     1.1145      0.000480
     1.1150      0.000000
     1.1155      0.000000
     1.1160      0.001610
     1.1165      0.000580
     1.1170      0.000000
     1.1175      0.000000
     1.1180      0.000000
     1.1185      0.000150
     1.1190      0.001240
     1.1195      0.002480
     1.1200      0.000000
     1.1205      0.000870
     1.1210      0.002590
     1.1215      0.000000
     1.1220      0.004450
     1.1225      0.000230
     1.1230      0.000420
     1.1235      0.000000
     1.1240      0.000800
     1.1245      0.001850
     1.1250      0.000270
     1.1255      0.000000
     1.1260      0.000260
     1.1265      0.001180
     1.1270      0.002410
     1.1275      0.000000
     1.1280      0.000730
     1.1285      0.000430
     1.1290      0.001370
     1.1295      0.003780
     1.1300      0.003030
     1.1305      0.000010
     1.1310      0.001280
     1.1315      0.000550
     1.1320      0.000390
     1.1325      0.000070
     1.1330      0.000000
     1.1335      0.000000
     1.1340      0.000440
     1.1345      0.000000
     1.1350      0.001800
     1.1355      0.000660
     1.1360      0.000280
     1.1365      0.001320
     1.1370      0.002830
     1.1375      0.000600
     1.1380      0.002220
     1.1385      0.003300
     1.1390      0.002020
     1.1395      0.000000
     1.1400      0.000000
     1.1405      0.000130
     1.1410      0.001140
     1.1415      0.001040
     1.1420      0.000260
     1.1425      0.000540
     1.1430      0.000090
     1.1435      0.000450
     1.1440      0.000040
     1.1445      0.000530
     1.1450      0.000000
     1.1455      0.000980
     1.1460      0.000140
     1.1465      0.000350
     1.1470      0.000960
     1.1475      0.001080
     1.1480      0.000000
     1.1485      0.000180
     1.1490      0.001890
     1.1495      0.001450
     1.1500      0.000690
     1.1505      0.000750
     1.1510      0.000000
     1.1515      0.000620
     1.1520      0.000000
     1.1525      0.001140
     1.1530      0.000000
     1.1535      0.000330
     1.1540      0.001860
     1.1545      0.003170
     1.1550      0.000780
     1.1555      0.001250
     1.1560      0.002400
     1.1565      0.002620
     1.1570      0.003170
     1.1575      0.001980
     1.1580      0.003450
     1.1585      0.004440
     1.1590      0.004780
     1.1595      0.008850
     1.1600      0.007370
     1.1605      0.004580
     1.1610      0.006150
     1.1615      0.001300
     1.1620      0.006520
     1.1625      0.000000
     1.1630      0.002820
     1.1635      0.003000
     1.1640      0.002520
     1.1645      0.002010
     1.1650      0.001690
     1.1655      0.000530
     1.1660      0.002440
     1.1665      0.001180
     1.1670      0.001140
     1.1675      0.000510
     1.1680      0.002870
     1.1685      0.003500
     1.1690      0.002380
     1.1695      0.001670
     1.1700      0.001240
     1.1705      0.000000
     1.1710      0.003140
     1.1715      0.005550
     1.1720      0.003670
     1.1725      0.003020
     1.1730      0.002630
     1.1735      0.002910
     1.1740      0.001400
     1.1745      0.000480
     1.1750      0.001480
     1.1755      0.002060
     1.1760      0.000000
     1.1765      0.004400
     1.1770      0.004840
     1.1775      0.001510
     1.1780      0.005850
     1.1785      0.005170
     1.1790      0.008280
     1.1795      0.007700
     1.1800      0.006900
     1.1805      0.010140
     1.1810      0.006970
     1.1815      0.007640
     1.1820      0.004550
     1.1825      0.005250
     1.1830      0.000870
     1.1835      0.003530
     1.1840      0.001170
     1.1845      0.003020
     1.1850      0.004080
     1.1855      0.001990
     1.1860      0.001090
     1.1865      0.003480
     1.1870      0.000000
     1.1875      0.001940
     1.1880      0.001160
     1.1885      0.000000
     1.1890      0.001310
     1.1895      0.002960
     1.1900      0.003070
     1.1905      0.000070
     1.1910      0.000310
     1.1915      0.000310
     1.1920      0.002260
     1.1925      0.001520
     1.1930      0.002980
     1.1935      0.003320
     1.1940      0.001580
     1.1945      0.001300
     1.1950      0.000090
     1.1955      0.000720
     1.1960      0.001940
     1.1965      0.000340
     1.1970      0.000660
     1.1975      0.000000
     1.1980      0.001570
     1.1985      0.000330
     1.1990      0.000040
     1.1995      0.000670
     1.2000      0.000230
     1.2005      0.002950
     1.2010      0.001700
     1.2015      0.000000
     1.2020      0.001490
     1.2025      0.002650
     1.2030      0.000250
     1.2035      0.000080
     1.2040      0.001530
     1.2045      0.003360
     1.2050      0.000000
     1.2055      0.005410
     1.2060      0.003950
     1.2065      0.002160
     1.2070      0.002890
     1.2075      0.004030
     1.2080      0.003980
     1.2085      0.002660
     1.2090      0.002280
     1.2095      0.000000
     1.2100      0.000000
     1.2105      0.002640
     1.2110      0.000900
     1.2115      0.001800
     1.2120      0.000370
     1.2125      0.001820
     1.2130      0.000000
     1.2135      0.002520
     1.2140      0.000310
     1.2145      0.000150
     1.2150      0.001380
     1.2155      0.002540
     1.2160      0.000000
     1.2165      0.001210
     1.2170      0.002620
     1.2175      0.000000
     1.2180      0.000000
     1.2185      0.000000
     1.2190      0.003360
     1.2195      0.001630
     1.2200      0.000000
     1.2205      0.000900
     1.2210      0.003530
     1.2215      0.000000
     1.2220      0.000150
     1.2225      0.003550
     1.2230      0.000000
     1.2235      0.001620
     1.2240      0.001310
     1.2245      0.003150
     1.2250      0.001330
     1.2255      0.002100
     1.2260      0.002100
     1.2265      0.000830
     1.2270      0.000580
     1.2275      0.000000
     1.2280      0.000000
     1.2285      0.002290
     1.2290      0.000670
     1.2295      0.001390
     1.2300      0.000000
     1.2305      0.001040
     1.2310      0.000000
     1.2315      0.001120
     1.2320      0.000810
     1.2325      0.000980
     1.2330      0.000000
     1.2335      0.000320
     1.2340      0.000570
     1.2345      0.000160
     1.2350      0.000000
     1.2355      0.001030
     1.2360      0.000000
     1.2365      0.000000
     1.2370      0.000010
     1.2375      0.000010
     1.2380      0.000000
     1.2385      0.000000
     1.2390      0.000000
     1.2395      0.002180
     1.2400      0.001540
     1.2405      0.000480
     1.2410      0.000380
     1.2415      0.001100
     1.2420      0.001920
     1.2425      0.000470
     1.2430      0.000020
     1.2435      0.000420
     1.2440      0.000980
     1.2445      0.002410
     1.2450      0.000000
     1.2455      0.000000
     1.2460      0.000040
     1.2465      0.000760
     1.2470      0.000100
     1.2475      0.000000
     1.2480      0.000110
     1.2485      0.000310
     1.2490      0.000000
     1.2495      0.000000
     1.2500      0.000210
     1.2505      0.000000
     1.2510      0.000000
     1.2515      0.000000
     1.2520      0.000130
     1.2525      0.001130
     1.2530      0.001370
     1.2535      0.000210
     1.2540      0.000180
     1.2545      0.000230
     1.2550      0.002210
     1.2555      0.000000
     1.2560      0.000000
     1.2565      0.000180
     1.2570      0.000200
     1.2575      0.000290
     1.2580      0.000430
     1.2585      0.000070
     1.2590      0.000000
     1.2595      0.000040
     1.2600      0.000070
     1.2605      0.000640
     1.2610      0.000000
     1.2615      0.000460
     1.2620      0.000320
     1.2625      0.001220
     1.2630      0.000880
     1.2635      0.002140
     1.2640      0.000000
     1.2645      0.000000
     1.2650      0.000000
     1.2655      0.001200
     1.2660      0.001110
     1.2665      0.000490
     1.2670      0.000000
     1.2675      0.002520
     1.2680      0.000000
     1.2685      0.001150
     1.2690      0.000000
     1.2695      0.000000
     1.2700      0.001010
     1.2705      0.000280
     1.2710      0.000000
     1.2715      0.000250
     1.2720      0.001010
     1.2725      0.000000
     1.2730      0.000000
     1.2735      0.000850
     1.2740      0.000010
     1.2745      0.001790
     1.2750      0.000000
     1.2755      0.000000
     1.2760      0.000040
     1.2765      0.000010
     1.2770      0.000000
     1.2775      0.002150
     1.2780      0.000000
     1.2785      0.000000
     1.2790      0.000000
     1.2795      0.000000
     1.2800      0.000410
     1.2805      0.000090
     1.2810      0.000000
     1.2815      0.001450
     1.2820      0.000020
     1.2825      0.000450
     1.2830      0.000370
     1.2835      0.001190
     1.2840      0.000000
     1.2845      0.000000
     1.2850      0.000000
     1.2855      0.001470
     1.2860      0.000000
     1.2865      0.000000
     1.2870      0.000000
     1.2875      0.000000
     1.2880      0.000340
     1.2885      0.000000
     1.2890      0.000000
     1.2895      0.000000
     1.2900      0.000150
     1.2905      0.000030
     1.2910      0.001400
     1.2915      0.000610
     1.2920      0.002970
     1.2925      0.000370
     1.2930      0.002090
     1.2935      0.000100
     1.2940      0.000640
     1.2945      0.002720
     1.2950      0.001530
     1.2955      0.003390
     1.2960      0.001060
     1.2965      0.000130
     1.2970      0.000000
     1.2975      0.001110
     1.2980      0.000840
     1.2985      0.000000
     1.2990      0.000740
     1.2995      0.000240
     1.3000      0.000000
     1.3005      0.000000
     1.3010      0.000000
     1.3015      0.000020
     1.3020      0.000000
     1.3025      0.000000
     1.3030      0.000000
     1.3035      0.000090
     1.3040      0.000270
     1.3045      0.000940
     1.3050      0.000840
     1.3055      0.000820
     1.3060      0.001180
     1.3065      0.001510
     1.3070      0.000000
     1.3075      0.000000
     1.3080      0.000000
     1.3085      0.000020
     1.3090      0.001870
     1.3095      0.001870
     1.3100      0.001240
     1.3105      0.000950
     1.3110      0.000160
     1.3115      0.000000
     1.3120      0.000000
     1.3125      0.000000
     1.3130      0.000000
     1.3135      0.000000
     1.3140      0.000000
     1.3145      0.001690
     1.3150      0.000000
     1.3155      0.001290
     1.3160      0.000370
     1.3165      0.001200
     1.3170      0.000480
     1.3175      0.000130
     1.3180      0.000930
     1.3185      0.002480
     1.3190      0.000340
     1.3195      0.000230
     1.3200      0.001280
     1.3205      0.000250
     1.3210      0.000000
     1.3215      0.000010
     1.3220      0.001430
     1.3225      0.000000
     1.3230      0.000000
     1.3235      0.002040
     1.3240      0.001190
     1.3245      0.000820
     1.3250      0.000000
     1.3255      0.002440
     1.3260      0.001750
     1.3265      0.002000
     1.3270      0.000520
     1.3275      0.001010
     1.3280      0.001590
     1.3285      0.001480
     1.3290      0.000160
     1.3295      0.000000
     1.3300      0.000760
     1.3305      0.000830
     1.3310      0.000990
     1.3315      0.002500
     1.3320      0.001240
     1.3325      0.000000
     1.3330      0.000000
     1.3335      0.000000
     1.3340      0.000170
     1.3345      0.000000
     1.3350      0.000100
     1.3355      0.002240
     1.3360      0.001550
     1.3365      0.001370
     1.3370      0.000280
     1.3375      0.000000
     1.3380      0.000000
     1.3385      0.000430
     1.3390      0.001530
     1.3395      0.000000
     1.3400      0.001230
     1.3405      0.000590
     1.3410      0.002240
     1.3415      0.000650
     1.3420      0.000700
     1.3425      0.002360
     1.3430      0.001190
     1.3435      0.000010
     1.3440      0.000270
     1.3445      0.000630
     1.3450      0.000030
     1.3455      0.002040
     1.3460      0.001100
     1.3465      0.000410
     1.3470      0.000030
     1.3475      0.000410
     1.3480      0.000640
     1.3485      0.000000
     1.3490      0.000000
     1.3495      0.001060
     1.3500      0.000000
     1.3505      0.001130
     1.3510      0.000000
     1.3515      0.000160
     1.3520      0.000060
     1.3525      0.000000
     1.3530      0.000000
     1.3535      0.000010
     1.3540      0.000000
     1.3545      0.000000
     1.3550      0.000080
     1.3555      0.000070
     1.3560      0.000000
     1.3565      0.000000
     1.3570      0.000610
     1.3575      0.000000
     1.3580      0.000000
     1.3585      0.000370
     1.3590      0.000020
     1.3595      0.000500
     1.3600      0.000000
     1.3605      0.000000
     1.3610      0.000000
     1.3615      0.000000
     1.3620      0.000000
     1.3625      0.001140
     1.3630      0.000000
     1.3635      0.000000
     1.3640      0.000000
     1.3645      0.000260
     1.3650      0.000640
     1.3655      0.000000
     1.3660      0.000000
     1.3665      0.000000
     1.3670      0.000000
     1.3675      0.000000
     1.3680      0.000000
     1.3685      0.000570
     1.3690      0.000470
     1.3695      0.000120
     1.3700      0.000000
     1.3705      0.000460
     1.3710      0.000000
     1.3715      0.000000
     1.3720      0.000000
     1.3725      0.001040
     1.3730      0.000500
     1.3735      0.001630
     1.3740      0.000070
     1.3745      0.000000
     1.3750      0.000020
     1.3755      0.000000
     1.3760      0.000000
     1.3765      0.000000
     1.3770      0.000000
     1.3775      0.000180
     1.3780      0.000000
     1.3785      0.000000
     1.3790      0.000000
     1.3795      0.000000
     1.3800      0.000000
     1.3805      0.000180
     1.3810      0.000730
     1.3815      0.001600
     1.3820      0.000570
     1.3825      0.000170
     1.3830      0.001170
     1.3835      0.001130
     1.3840      0.000810
     1.3845      0.002130
     1.3850      0.001950
     1.3855      0.000000
     1.3860      0.000480
     1.3865      0.000000
     1.3870      0.000060
     1.3875      0.000270
     1.3880      0.000000
     1.3885      0.000020
     1.3890      0.001050
     1.3895      0.000270
     1.3900      0.000000
     1.3905      0.000460
     1.3910      0.000020
     1.3915      0.000010
     1.3920      0.000000
     1.3925      0.000000
     1.3930      0.000110
     1.3935      0.000000
     1.3940      0.000310
     1.3945      0.000980
     1.3950      0.000410
     1.3955      0.000010
     1.3960      0.000000
     1.3965      0.000000
     1.3970      0.000210
     1.3975      0.001090
     1.3980      0.000040
     1.3985      0.000490
     1.3990      0.001700
     1.3995      0.000060
     1.4000      0.000000
     1.4005      0.000050
     1.4010      0.000520
     1.4015      0.001080
     1.4020      0.001090
     1.4025      0.000000
     1.4030      0.000000
     1.4035      0.000190
     1.4040      0.000730
     1.4045      0.000020
     1.4050      0.000010
     1.4055      0.000440
     1.4060      0.000000
     1.4065      0.000640
     1.4070      0.000180
     1.4075      0.000000
     1.4080      0.000800
     1.4085      0.000270
     1.4090      0.000050
     1.4095      0.000320
     1.4100      0.000030
     1.4105      0.000660
     1.4110      0.000200
     1.4115      0.000820
     1.4120      0.001700
     1.4125      0.000000
     1.4130      0.000980
     1.4135      0.000000
     1.4140      0.000940
     1.4145      0.000610
     1.4150      0.001360
     1.4155      0.000370
     1.4160      0.000000
     1.4165      0.000000
     1.4170      0.000000
     1.4175      0.000000
     1.4180      0.000000
     1.4185      0.000400
     1.4190      0.000420
     1.4195      0.000720
     1.4200      0.000070
     1.4205      0.000710
     1.4210      0.000460
     1.4215      0.000000
     1.4220      0.000000
     1.4225      0.000000
     1.4230      0.000030
     1.4235      0.001490
     1.4240      0.000270
     1.4245      0.000050
     1.4250      0.000800
     1.4255      0.000250
     1.4260      0.000000
     1.4265      0.000000
     1.4270      0.000000
     1.4275      0.000040
     1.4280      0.000010
     1.4285      0.000000
     1.4290      0.000000
     1.4295      0.000000
     1.4300      0.000610
     1.4305      0.000220
     1.4310      0.000440
     1.4315      0.000800
     1.4320      0.000070
     1.4325      0.000460
     1.4330      0.000040
     1.4335      0.000000
     1.4340      0.000050
     1.4345      0.000380
     1.4350      0.001200
     1.4355      0.001090
     1.4360      0.000000
     1.4365      0.000540
     1.4370      0.000000
     1.4375      0.000380
     1.4380      0.000000
     1.4385      0.000000
     1.4390      0.001660
     1.4395      0.000030
     1.4400      0.000000
     1.4405      0.001240
     1.4410      0.000580
     1.4415      0.000250
     1.4420      0.000450
     1.4425      0.000340
     1.4430      0.000000
     1.4435      0.000430
     1.4440      0.000000
     1.4445      0.000000
     1.4450      0.000040
     1.4455      0.000000
     1.4460      0.000030
     1.4465      0.000290
     1.4470      0.000670
     1.4475      0.000750
     1.4480      0.001760
     1.4485      0.000270
     1.4490      0.000330
     1.4495      0.000070
     1.4500      0.000230
     1.4505      0.000750
     1.4510      0.000070
     1.4515      0.000210
     1.4520      0.001160
     1.4525      0.000370
     1.4530      0.000000
     1.4535      0.000000
     1.4540      0.000000
     1.4545      0.000000
     1.4550      0.000000
     1.4555      0.000390
     1.4560      0.001100
     1.4565      0.000720
     1.4570      0.000010
     1.4575      0.000770
     1.4580      0.000000
     1.4585      0.000000
     1.4590      0.000440
     1.4595      0.000310
     1.4600      0.000000
     1.4605      0.000350
     1.4610      0.000690
     1.4615      0.000000
     1.4620      0.001290
     1.4625      0.000010
     1.4630      0.000000
     1.4635      0.000000
     1.4640      0.001020
     1.4645      0.001810
     1.4650      0.000820
     1.4655      0.000000
     1.4660      0.001030
     1.4665      0.000260
     1.4670      0.000060
     1.4675      0.000000
     1.4680      0.000000
     1.4685      0.000000
     1.4690      0.000000
     1.4695      0.000000
     1.4700      0.000260
     1.4705      0.000000
     1.4710      0.000000
     1.4715      0.000340
     1.4720      0.000160
     1.4725      0.000000
     1.4730      0.000000
     1.4735      0.000390
     1.4740      0.000000
     1.4745      0.000000
     1.4750      0.000750
     1.4755      0.000100
     1.4760      0.000020
     1.4765      0.000430
     1.4770      0.000370
     1.4775      0.000420
     1.4780      0.000000
     1.4785      0.000000
     1.4790      0.000620
     1.4795      0.000000
     1.4800      0.000500
     1.4805      0.000240
     1.4810      0.000640
     1.4815      0.000500
     1.4820      0.000000
     1.4825      0.001150
     1.4830      0.000000
     1.4835      0.000600
     1.4840      0.000910
     1.4845      0.000020
     1.4850      0.001020
     1.4855      0.001320
     1.4860      0.000000
     1.4865      0.000000
     1.4870      0.000640
     1.4875      0.000250
     1.4880      0.000290
     1.4885      0.001450
     1.4890      0.002210
     1.4895      0.001020
     1.4900      0.000100
     1.4905      0.000800
     1.4910      0.000070
     1.4915      0.000670
     1.4920      0.001570
     1.4925      0.000440
     1.4930      0.000010
     1.4935      0.000210
     1.4940      0.000780
     1.4945      0.000530
     1.4950      0.000000
     1.4955      0.000210
     1.4960      0.001540
     1.4965      0.000020
     1.4970      0.000120
     1.4975      0.002220
     1.4980      0.000020
     1.4985      0.000640
     1.4990      0.000930
     1.4995      0.001230
     1.5000      0.000660
     1.5005      0.001620
     1.5010      0.001230
     1.5015      0.000190
     1.5020      0.000400
     1.5025      0.000820
     1.5030      0.000200
     1.5035      0.000700
     1.5040      0.000610
     1.5045      0.000290
     1.5050      0.000050
     1.5055      0.000830
     1.5060      0.000000
     1.5065      0.000710
     1.5070      0.001030
     1.5075      0.000170
     1.5080      0.000900
     1.5085      0.000950
     1.5090      0.002010
     1.5095      0.000970
     1.5100      0.000450
     1.5105      0.001300
     1.5110      0.000000
     1.5115      0.001180
     1.5120      0.000050
     1.5125      0.001250
     1.5130      0.000300
     1.5135      0.000000
     1.5140      0.000710
     1.5145      0.002020
     1.5150      0.002240
     1.5155      0.001060
     1.5160      0.000000
     1.5165      0.000000
     1.5170      0.000000
     1.5175      0.000070
     1.5180      0.000580
     1.5185      0.000090
     1.5190      0.000420
     1.5195      0.000000
     1.5200      0.000120
     1.5205      0.000360
     1.5210      0.001530
     1.5215      0.001800
     1.5220      0.000190
     1.5225      0.001080
     1.5230      0.001470
     1.5235      0.001240
     1.5240      0.001250
     1.5245      0.000190
     1.5250      0.000860
     1.5255      0.000000
     1.5260      0.000020
     1.5265      0.000340
     1.5270      0.000000
     1.5275      0.000000
     1.5280      0.000000
     1.5285      0.000270
     1.5290      0.000310
     1.5295      0.000000
     1.5300      0.000000
     1.5305      0.001220
     1.5310      0.000120
     1.5315      0.000250
     1.5320      0.000000
     1.5325      0.000000
     1.5330      0.000000
     1.5335      0.000740
     1.5340      0.000160
     1.5345      0.000350
     1.5350      0.000120
     1.5355      0.000630
     1.5360      0.002770
     1.5365      0.001100
     1.5370      0.001330
     1.5375      0.001740
     1.5380      0.000770
     1.5385      0.002310
     1.5390      0.001680
     1.5395      0.002470
     1.5400      0.002560
     1.5405      0.002430
     1.5410      0.002650
     1.5415      0.002430
     1.5420      0.002200
     1.5425      0.002270
     1.5430      0.001250
     1.5435      0.002420
     1.5440      0.001920
     1.5445      0.001030
     1.5450      0.000400
     1.5455      0.000570
     1.5460      0.001200
     1.5465      0.002140
     1.5470      0.001160
     1.5475      0.000850
     1.5480      0.001180
     1.5485      0.001160
     1.5490      0.001610
     1.5495      0.000750
     1.5500      0.000180
     1.5505      0.001120
     1.5510      0.000760
     1.5515      0.002770
     1.5520      0.002060
     1.5525      0.002720
     1.5530      0.002490
     1.5535      0.001280
     1.5540      0.002830
     1.5545      0.002930
     1.5550      0.003510
     1.5555      0.003740
     1.5560      0.004610
     1.5565      0.004600
     1.5570      0.005670
     1.5575      0.007750
     1.5580      0.009270
     1.5585      0.013820
     1.5590      0.021900
     1.5595      0.030240
     1.5600      0.045490
     1.5605      0.070260
     1.5610      0.107820
     1.5615      0.170460
     1.5620      0.272390
     1.5625      0.417320
     1.5630      0.593670
     1.5635      0.758760
     1.5640      0.867270
     1.5645      0.913920
     1.5650      0.923770
     1.5655      0.915630
     1.5660      0.910570
     1.5665      0.909270
     1.5670      0.912290
     1.5675      0.919070
     1.5680      0.927300
     1.5685      0.935440
     1.5690      0.939150
     1.5695      0.939950
     1.5700      0.940750
     1.5705      0.939650
     1.5710      0.935940
     1.5715      0.937870
     1.5720      0.938030
     1.5725      0.941980
     1.5730      0.950940
     1.5735      0.957320
     1.5740      0.964630
     1.5745      0.969540
     1.5750      0.972000
     1.5755      0.972370
     1.5760      0.965990
     1.5765      0.953850
     1.5770      0.938550
     1.5775      0.921860
     1.5780      0.901810
     1.5785      0.886380
     1.5790      0.869690
     1.5795      0.860300
     1.5800      0.849860
     1.5805      0.848510
     1.5810      0.852890
     1.5815      0.863160
     1.5820      0.878160
     1.5825      0.895150
     1.5830      0.916620
     1.5835      0.937190
     1.5840      0.953770
     1.5845      0.962490
     1.5850      0.966660
     1.5855      0.966730
     1.5860      0.958910
     1.5865      0.948490
     1.5870      0.938550
     1.5875      0.923250
     1.5880      0.903670
     1.5885      0.863190
     1.5890      0.787580
     1.5895      0.667630
     1.5900      0.516170
     1.5905      0.366480
     1.5910      0.245340
     1.5915      0.160140
     1.5920      0.103760
     1.5925      0.066780
     1.5930      0.046170
     1.5935      0.031240
     1.5940      0.020860
     1.5945      0.016330
     1.5950      0.012280
     1.5955      0.009370
     1.5960      0.007370
     1.5965      0.004930
     1.5970      0.004330
     1.5975      0.005290
     1.5980      0.003600
     1.5985      0.004220
     1.5990      0.004700
     1.5995      0.003230
     1.6000      0.002350
     1.6005      0.002720
     1.6010      0.003260
     1.6015      0.003160
     1.6020      0.002520
     1.6025      0.001380
     1.6030      0.001930
     1.6035      0.001990
     1.6040      0.002000
     1.6045      0.001950
     1.6050      0.000770
     1.6055      0.001620
     1.6060      0.002270
     1.6065      0.000220
     1.6070      0.000710
     1.6075      0.002540
     1.6080      0.000880
     1.6085      0.001760
     1.6090      0.002000
     1.6095      0.000790
     1.6100      0.000140
     1.6105      0.001140
     1.6110      0.000160
     1.6115      0.000600
     1.6120      0.000430
     1.6125      0.001420
     1.6130      0.000420
     1.6135      0.000000
     1.6140      0.001420
     1.6145      0.000550
     1.6150      0.000000
     1.6155      0.000180
     1.6160      0.000290
     1.6165      0.000540
     1.6170      0.000010
     1.6175      0.000230
     1.6180      0.000390
     1.6185      0.000000
     1.6190      0.000000
     1.6195      0.000000
     1.6200      0.000190
     1.6205      0.000300
     1.6210      0.000000
     1.6215      0.000000
     1.6220      0.000390
     1.6225      0.000000
     1.6230      0.000000
     1.6235      0.000000
     1.6240      0.000020
     1.6245      0.000630
     1.6250      0.001260
     1.6255      0.000010
     1.6260      0.000740
     1.6265      0.001270
     1.6270      0.000000
     1.6275      0.001050
     1.6280      0.000060
     1.6285      0.000860
     1.6290      0.000390
     1.6295      0.000150
     1.6300      0.000620
     1.6305      0.000130
     1.6310      0.000000
     1.6315      0.000000
     1.6320      0.001150
     1.6325      0.000730
     1.6330      0.000000
     1.6335      0.000000
     1.6340      0.000010
     1.6345      0.000220
     1.6350      0.000000
     1.6355      0.000860
     1.6360      0.000860
     1.6365      0.000130
     1.6370      0.000000
     1.6375      0.000000
     1.6380      0.000000
     1.6385      0.000000
     1.6390      0.000210
     1.6395      0.001280
     1.6400      0.000460
     1.6405      0.000810
     1.6410      0.000110
     1.6415      0.000020
     1.6420      0.000020
     1.6425      0.000000
     1.6430      0.000000
     1.6435      0.000010
     1.6440      0.000000
     1.6445      0.000080
     1.6450      0.000220
     1.6455      0.000100
     1.6460      0.000510
     1.6465      0.000710
     1.6470      0.001310
     1.6475      0.000100
     1.6480      0.000000
     1.6485      0.000000
     1.6490      0.000230
     1.6495      0.000000
     1.6500      0.001020
     1.6505      0.000270
     1.6510      0.000000
     1.6515      0.000000
     1.6520      0.000000
     1.6525      0.000000
     1.6530      0.000060
     1.6535      0.000000
     1.6540      0.000000
     1.6545      0.000000
     1.6550      0.000000
     1.6555      0.000890
     1.6560      0.000120
     1.6565      0.000000
     1.6570      0.000000
     1.6575      0.000000
     1.6580      0.000000
     1.6585      0.000000
     1.6590      0.000000
     1.6595      0.000000
     1.6600      0.000000
     1.6605      0.000150
     1.6610      0.000070
     1.6615      0.000000
     1.6620      0.000030
     1.6625      0.000680
     1.6630      0.000030
     1.6635      0.000290
     1.6640      0.000070
     1.6645      0.000330
     1.6650      0.000630
     1.6655      0.000000
     1.6660      0.000030
     1.6665      0.000440
     1.6670      0.000000
     1.6675      0.000000
     1.6680      0.000000
     1.6685      0.000000
     1.6690      0.000000
     1.6695      0.000160
     1.6700      0.000000
     1.6705      0.000000
     1.6710      0.000400
     1.6715      0.000060
     1.6720      0.000190
     1.6725      0.000000
     1.6730      0.000490
     1.6735      0.000000
     1.6740      0.000000
     1.6745      0.000000
     1.6750      0.000000
     1.6755      0.000160
     1.6760      0.000000
     1.6765      0.000000
     1.6770      0.000000
     1.6775      0.002320
     1.6780      0.002570
     1.6785      0.000360
     1.6790      0.000930
     1.6795      0.000010
     1.6800      0.000340
     1.6805      0.000010
     1.6810      0.000000
     1.6815      0.000000
     1.6820      0.000000
     1.6825      0.000000
     1.6830      0.000630
     1.6835      0.001060
     1.6840      0.000310
     1.6845      0.000000
     1.6850      0.000000
     1.6855      0.000600
     1.6860      0.000660
     1.6865      0.000000
     1.6870      0.000020
     1.6875      0.000000
     1.6880      0.000000
     1.6885      0.001130
     1.6890      0.001950
     1.6895      0.000630
     1.6900      0.000490
     1.6905      0.000140
     1.6910      0.000360
     1.6915      0.000220
     1.6920      0.000270
     1.6925      0.000000
     1.6930      0.000000
     1.6935      0.000000
     1.6940      0.000000
     1.6945      0.000000
     1.6950      0.000110
     1.6955      0.000000
     1.6960      0.000000
     1.6965      0.000000
     1.6970      0.000000
     1.6975      0.000020
     1.6980      0.000010
     1.6985      0.000470
     1.6990      0.000570
     1.6995      0.000000
     1.7000      0.000000
     1.7005      0.000000
     1.7010      0.000300
     1.7015      0.000020
     1.7020      0.000510
     1.7025      0.000220
     1.7030      0.000000
     1.7035      0.000000
     1.7040      0.000300
     1.7045      0.000840
     1.7050      0.000510
     1.7055      0.000050
     1.7060      0.001560
     1.7065      0.000610
     1.7070      0.000260
     1.7075      0.000640
     1.7080      0.000000
     1.7085      0.000060
     1.7090      0.000370
     1.7095      0.000500
     1.7100      0.000580
     1.7105      0.000150
     1.7110      0.001070
     1.7115      0.000190
     1.7120      0.000090
     1.7125      0.000330
     1.7130      0.000070
     1.7135      0.000000
     1.7140      0.000110
     1.7145      0.001390
     1.7150      0.000160
     1.7155      0.000100
     1.7160      0.000420
     1.7165      0.000000
     1.7170      0.000000
     1.7175      0.000220
     1.7180      0.000240
     1.7185      0.000060
     1.7190      0.000300
     1.7195      0.000000
     1.7200      0.000000
     1.7205      0.000000
     1.7210      0.000000
     1.7215      0.000020
     1.7220      0.000000
     1.7225      0.000110
     1.7230      0.000170
     1.7235      0.000090
     1.7240      0.000790
     1.7245      0.000590
     1.7250      0.000110
     1.7255      0.000640
     1.7260      0.001040
     1.7265      0.000000
     1.7270      0.000000
     1.7275      0.000000
     1.7280      0.000120
     1.7285      0.000000
     1.7290      0.000000
     1.7295      0.000570
     1.7300      0.000700
     1.7305      0.000000
     1.7310      0.000000
     1.7315      0.000000
     1.7320      0.000310
     1.7325      0.000010
     1.7330      0.000410
     1.7335      0.000080
     1.7340      0.000050
     1.7345      0.000000
     1.7350      0.000000
     1.7355      0.000000
     1.7360      0.000010
     1.7365      0.000080
     1.7370      0.000000
     1.7375      0.000000
     1.7380      0.000000
     1.7385      0.000000
     1.7390      0.000000
     1.7395      0.000000
     1.7400      0.000000
     1.7405      0.000000
     1.7410      0.000600
     1.7415      0.000270
     1.7420      0.000280
     1.7425      0.000020
     1.7430      0.000000
     1.7435      0.000000
     1.7440      0.000280
     1.7445      0.000840
     1.7450      0.000710
     1.7455      0.000160
     1.7460      0.000000
     1.7465      0.000050
     1.7470      0.000320
     1.7475      0.000000
     1.7480      0.000440
     1.7485      0.000310
     1.7490      0.000000
     1.7495      0.000000
     1.7500      0.000000
     1.7505      0.000030
     1.7510      0.000000
     1.7515      0.000000
     1.7520      0.000190
     1.7525      0.001020
     1.7530      0.000640
     1.7535      0.000000
     1.7540      0.000160
     1.7545      0.000540
     1.7550      0.000220
     1.7555      0.000180
     1.7560      0.000040
     1.7565      0.001080
     1.7570      0.000000
     1.7575      0.000030
     1.7580      0.000070
     1.7585      0.000160
     1.7590      0.001230
     1.7595      0.000970
     1.7600      0.000430
     1.7605      0.000000
     1.7610      0.000110
     1.7615      0.000000
     1.7620      0.000070
     1.7625      0.000830
     1.7630      0.000000
     1.7635      0.000160
     1.7640      0.000640
     1.7645      0.000000
     1.7650      0.000180
     1.7655      0.000720
     1.7660      0.000200
     1.7665      0.000040
     1.7670      0.000000
     1.7675      0.000000
     1.7680      0.000000
     1.7685      0.000000
     1.7690      0.000660
     1.7695      0.000360
     1.7700      0.000050
     1.7705      0.000560
     1.7710      0.000850
     1.7715      0.000010
     1.7720      0.000010
     1.7725      0.000150
     1.7730      0.000970
     1.7735      0.000860
     1.7740      0.000870
     1.7745      0.001640
     1.7750      0.001260
     1.7755      0.000040
     1.7760      0.001150
     1.7765      0.000620
     1.7770      0.000970
     1.7775      0.000120
     1.7780      0.000090
     1.7785      0.000100
     1.7790      0.000000
     1.7795      0.000870
     1.7800      0.000270
     1.7805      0.000000
     1.7810      0.000000
     1.7815      0.000390
     1.7820      0.001040
     1.7825      0.000190
     1.7830      0.000120
     1.7835      0.000600
     1.7840      0.000000
     1.7845      0.000000
     1.7850      0.000000
     1.7855      0.000350
     1.7860      0.000390
     1.7865      0.000400
     1.7870      0.000650
     1.7875      0.000610
     1.7880      0.000100
     1.7885      0.000220
     1.7890      0.001060
     1.7895      0.001160
     1.7900      0.000660
     1.7905      0.000790
     1.7910      0.000570
     1.7915      0.000080
     1.7920      0.000060
     1.7925      0.000000
     1.7930      0.000350
     1.7935      0.000390
     1.7940      0.000000
     1.7945      0.000150
     1.7950      0.000550
     1.7955      0.000900
     1.7960      0.000790
     1.7965      0.000420
     1.7970      0.000010
     1.7975      0.000000
     1.7980      0.000430
     1.7985      0.000650
     1.7990      0.000000
     1.7995      0.000000
     1.8000      0.000770
     1.8005      0.000370
     1.8010      0.000170
     1.8015      0.000000
     1.8020      0.000000
     1.8025      0.000000
     1.8030      0.000000
     1.8035      0.000050
     1.8040      0.000000
     1.8045      0.000000
     1.8050      0.000000
     1.8055      0.000000
     1.8060      0.000000
     1.8065      0.000000
     1.8070      0.000000
     1.8075      0.000720
     1.8080      0.000920
     1.8085      0.000720
     1.8090      0.000000
     1.8095      0.000340
     1.8100      0.000710
     1.8105      0.000140
     1.8110      0.000080
     1.8115      0.000000
     1.8120      0.000000
     1.8125      0.000250
     1.8130      0.000080
     1.8135      0.000000
     1.8140      0.000000
     1.8145      0.000390
     1.8150      0.000370
     1.8155      0.000000
     1.8160      0.000010
     1.8165      0.000010
     1.8170      0.000000
     1.8175      0.000000
     1.8180      0.000450
     1.8185      0.000670
     1.8190      0.000090
     1.8195      0.000000
     1.8200      0.000000
     1.8205      0.000000
     1.8210      0.000000
     1.8215      0.000000
     1.8220      0.000000
     1.8225      0.000330
     1.8230      0.000000
     1.8235      0.000000
     1.8240      0.000240
     1.8245      0.000050
     1.8250      0.000110
     1.8255      0.000000
     1.8260      0.000000
     1.8265      0.000000
     1.8270      0.000000
     1.8275      0.000290
     1.8280      0.000620
     1.8285      0.000060
     1.8290      0.000000
     1.8295      0.000170
     1.8300      0.000010
     1.8305      0.000000
     1.8310      0.000480
     1.8315      0.000430
     1.8320      0.000380
     1.8325      0.001420
     1.8330      0.001380
     1.8335      0.001230
     1.8340      0.001710
     1.8345      0.001030
     1.8350      0.000200
     1.8355      0.000020
     1.8360      0.000000
     1.8365      0.000660
     1.8370      0.000230
     1.8375      0.000000
     1.8380      0.000110
     1.8385      0.000570
     1.8390      0.001000
     1.8395      0.002350
     1.8400      0.002780
     1.8405      0.003030
     1.8410      0.003570
     1.8415      0.005780
     1.8420      0.006690
     1.8425      0.007320
     1.8430      0.008260
     1.8435      0.008880
     1.8440      0.009130
     1.8445      0.009480
     1.8450      0.008720
     1.8455      0.008790
     1.8460      0.008230
     1.8465      0.008200
     1.8470      0.007820
     1.8475      0.007520
     1.8480      0.007650
     1.8485      0.006660
     1.8490      0.005350
     1.8495      0.005020
     1.8500      0.004670
     1.8505      0.005110
     1.8510      0.004730
     1.8515      0.005430
     1.8520      0.005680
     1.8525      0.005170
     1.8530      0.005990
     1.8535      0.005500
     1.8540      0.005790
     1.8545      0.005520
     1.8550      0.005920
     1.8555      0.005570
     1.8560      0.005510
     1.8565      0.005480
     1.8570      0.005350
     1.8575      0.004720
     1.8580      0.006030
     1.8585      0.005440
     1.8590      0.005520
     1.8595      0.006390
     1.8600      0.006780
     1.8605      0.007100
     1.8610      0.006940
     1.8615      0.005930
     1.8620      0.005890
     1.8625      0.005610
     1.8630      0.006620
     1.8635      0.006890
     1.8640      0.006180
     1.8645      0.006020
     1.8650      0.006380
     1.8655      0.006420
     1.8660      0.006180
     1.8665      0.006730
     1.8670      0.006450
     1.8675      0.004680
     1.8680      0.004540
     1.8685      0.005100
     1.8690      0.004470
     1.8695      0.004750
     1.8700      0.004970
     1.8705      0.005370
     1.8710      0.004590
     1.8715      0.005160
     1.8720      0.005260
     1.8725      0.004450
     1.8730      0.004850
     1.8735      0.004410
     1.8740      0.003740
     1.8745      0.004340
     1.8750      0.004630
     1.8755      0.004920
     1.8760      0.004240
     1.8765      0.004560
     1.8770      0.005060
     1.8775      0.005270
     1.8780      0.004710
     1.8785      0.004210
     1.8790      0.003220
     1.8795      0.003700
     1.8800      0.004820
     1.8805      0.004740
     1.8810      0.004450
     1.8815      0.004580
     1.8820      0.004790
     1.8825      0.004470
     1.8830      0.003090
     1.8835      0.003680
     1.8840      0.003610
     1.8845      0.004590
     1.8850      0.004760
     1.8855      0.005130
     1.8860      0.005660
     1.8865      0.005350
     1.8870      0.005090
     1.8875      0.004750
     1.8880      0.004420
     1.8885      0.004640
     1.8890      0.004840
     1.8895      0.005020
     1.8900      0.004670
     1.8905      0.005130
     1.8910      0.005380
     1.8915      0.005660
     1.8920      0.005500
     1.8925      0.004520
     1.8930      0.004570
     1.8935      0.004690
     1.8940      0.004270
     1.8945      0.004420
     1.8950      0.005270
     1.8955      0.005360
     1.8960      0.005190
     1.8965      0.005010
     1.8970      0.005060
     1.8975      0.004640
     1.8980      0.004660
     1.8985      0.005310
     1.8990      0.005170
     1.8995      0.004220
     1.9000      0.004560
     1.9005      0.004780
     1.9010      0.003700
     1.9015      0.003270
     1.9020      0.004900
     1.9025      0.004300
     1.9030      0.003470
     1.9035      0.003540
     1.9040      0.003930
     1.9045      0.004120
     1.9050      0.004150
     1.9055      0.003850
     1.9060      0.003500
     1.9065      0.003300
     1.9070      0.003370
     1.9075      0.004150
     1.9080      0.004190
     1.9085      0.004090
     1.9090      0.004020
     1.9095      0.002990
     1.9100      0.002820
     1.9105      0.004180
     1.9110      0.004470
     1.9115      0.003730
     1.9120      0.002490
     1.9125      0.002820
     1.9130      0.003710
     1.9135      0.003290
     1.9140      0.002540
     1.9145      0.002230
     1.9150      0.002630
     1.9155      0.003020
     1.9160      0.002790
     1.9165      0.002530
     1.9170      0.002270
     1.9175      0.002360
     1.9180      0.002980
     1.9185      0.003390
     1.9190      0.002570
     1.9195      0.002390
     1.9200      0.002740
     1.9205      0.002650
     1.9210      0.002720
     1.9215      0.002970
     1.9220      0.002630
     1.9225      0.002320
     1.9230      0.002850
     1.9235      0.002940
     1.9240      0.002590
     1.9245      0.002720
     1.9250      0.002430
     1.9255      0.002580
     1.9260      0.001390
     1.9265      0.001870
     1.9270      0.002820
     1.9275      0.002100
     1.9280      0.002780
     1.9285      0.002980
     1.9290      0.002390
     1.9295      0.001830
     1.9300      0.001890
     1.9305      0.001320
     1.9310      0.001020
     1.9315      0.000620
     1.9320      0.000010
     1.9325      0.000500
     1.9330      0.000500
     1.9335      0.000850
     1.9340      0.000550
     1.9345      0.000750
     1.9350      0.001610
     1.9355      0.001500
     1.9360      0.000780
     1.9365      0.000890
     1.9370      0.000230
     1.9375      0.001300
     1.9380      0.001250
     1.9385      0.000020
     1.9390      0.000300
     1.9395      0.001380
     1.9400      0.000960
     1.9405      0.000490
     1.9410      0.001060
     1.9415      0.002160
     1.9420      0.001320
     1.9425      0.000960
     1.9430      0.000600
     1.9435      0.000400
     1.9440      0.000530
     1.9445      0.000410
     1.9450      0.000820
     1.9455      0.000000
     1.9460      0.000000
     1.9465      0.000000
     1.9470      0.000070
     1.9475      0.000420
     1.9480      0.000370
     1.9485      0.000770
     1.9490      0.001780
     1.9495      0.001110
     1.9500      0.000160
     1.9505      0.000520
     1.9510      0.000160
     1.9515      0.000000
     1.9520      0.000000
     1.9525      0.000040
     1.9530      0.000460
     1.9535      0.000520
     1.9540      0.000060
     1.9545      0.000000
     1.9550      0.000000
     1.9555      0.000080
     1.9560      0.001220
     1.9565      0.001480
     1.9570      0.000930
     1.9575      0.001450
     1.9580      0.001010
     1.9585      0.001380
     1.9590      0.000740
     1.9595      0.000580
     1.9600      0.000070
     1.9605      0.000000
     1.9610      0.000520
     1.9615      0.001460
     1.9620      0.000610
     1.9625      0.000080
     1.9630      0.000810
     1.9635      0.001290
     1.9640      0.000830
     1.9645      0.000150
     1.9650      0.000000
     1.9655      0.000000
     1.9660      0.000000
     1.9665      0.000040
     1.9670      0.000260
     1.9675      0.000440
     1.9680      0.000070
     1.9685      0.000060
     1.9690      0.000000
     1.9695      0.000130
     1.9700      0.000690
     1.9705      0.000110
     1.9710      0.000070
     1.9715      0.000480
     1.9720      0.000540
     1.9725      0.000660
     1.9730      0.000230
     1.9735      0.000460
     1.9740      0.000740
     1.9745      0.000220
     1.9750      0.000000
     1.9755      0.000010
     1.9760      0.000020
     1.9765      0.000090
     1.9770      0.000000
     1.9775      0.000000
     1.9780      0.000560
     1.9785      0.001240
     1.9790      0.001390
     1.9795      0.001310
     1.9800      0.000630
     1.9805      0.000090
     1.9810      0.000000
     1.9815      0.000010
     1.9820      0.000510
     1.9825      0.000950
     1.9830      0.000920
     1.9835      0.000380
     1.9840      0.000000
     1.9845      0.000000
     1.9850      0.000600
     1.9855      0.000220
     1.9860      0.000230
     1.9865      0.001460
     1.9870      0.001340
     1.9875      0.000250
     1.9880      0.000000
     1.9885      0.000150
     1.9890      0.000070
     1.9895      0.000000
     1.9900      0.000010
     1.9905      0.000000
     1.9910      0.000000
     1.9915      0.000000
     1.9920      0.000170
     1.9925      0.000500
     1.9930      0.000800
     1.9935      0.001210
     1.9940      0.000230
     1.9945      0.000490
     1.9950      0.001700
     1.9955      0.001530
     1.9960      0.000550
     1.9965      0.000580
     1.9970      0.000900
     1.9975      0.001140
     1.9980      0.000770
     1.9985      0.001110
     1.9990      0.000210
     1.9995      0.000060
     2.0000      0.000650
     2.0005      0.001080
     2.0010      0.000510
     2.0015      0.000180
     2.0020      0.000750
     2.0025      0.000640
     2.0030      0.000460
     2.0035      0.001010
     2.0040      0.000480
     2.0045      0.000060
     2.0050      0.000810
     2.0055      0.001270
     2.0060      0.001840
     2.0065      0.002290
     2.0070      0.002120
     2.0075      0.001360
     2.0080      0.001480
     2.0085      0.001500
     2.0090      0.000950
     2.0095      0.001570
     2.0100      0.000770
     2.0105      0.000380
     2.0110      0.001170
     2.0115      0.001360
     2.0120      0.001180
     2.0125      0.001340
     2.0130      0.001910
     2.0135      0.001940
     2.0140      0.001730
     2.0145      0.001670
     2.0150      0.002460
     2.0155      0.002170
     2.0160      0.001790
     2.0165      0.002050
     2.0170      0.001830
     2.0175      0.001190
     2.0180      0.000930
     2.0185      0.000980
     2.0190      0.001650
     2.0195      0.002400
     2.0200      0.002950
     2.0205      0.001880
     2.0210      0.001680
     2.0215      0.002040
     2.0220      0.002780
     2.0225      0.002230
     2.0230      0.001170
     2.0235      0.001420
     2.0240      0.001830
     2.0245      0.002110
     2.0250      0.001880
     2.0255      0.001080
     2.0260      0.001390
     2.0265      0.001760
     2.0270      0.001840
     2.0275      0.002060
     2.0280      0.002290
     2.0285      0.002020
     2.0290      0.001190
     2.0295      0.001790
     2.0300      0.002310
     2.0305      0.002310
     2.0310      0.001530
     2.0315      0.001000
     2.0320      0.001590
     2.0325      0.002170
     2.0330      0.001860
     2.0335      0.001750
     2.0340      0.001580
     2.0345      0.001410
     2.0350      0.001660
     2.0355      0.002040
     2.0360      0.002020
     2.0365      0.001840
     2.0370      0.001610
     2.0375      0.001370
     2.0380      0.001480
     2.0385      0.001260
     2.0390      0.001050
     2.0395      0.001570
     2.0400      0.001550
     2.0405      0.001060
     2.0410      0.000410
     2.0415      0.000810
     2.0420      0.001560
     2.0425      0.000890
     2.0430      0.000770
     2.0435      0.001340
     2.0440      0.001420
     2.0445      0.001340
     2.0450      0.001240
     2.0455      0.001030
     2.0460      0.000380
     2.0465      0.000840
     2.0470      0.000650
     2.0475      0.000360
     2.0480      0.000450
     2.0485      0.000230
     2.0490      0.000520
     2.0495      0.000630
     2.0500      0.000820
     2.0505      0.000990
     2.0510      0.000490
     2.0515      0.000350
     2.0520      0.000530
     2.0525      0.000720
     2.0530      0.000410
     2.0535      0.000010
     2.0540      0.000030
     2.0545      0.000000
     2.0550      0.000290
     2.0555      0.000550
     2.0560      0.000160
     2.0565      0.000000
     2.0570      0.000000
     2.0575      0.000170
     2.0580      0.001020
     2.0585      0.000940
     2.0590      0.000010
     2.0595      0.000580
     2.0600      0.000390
     2.0605      0.000000
     2.0610      0.000000
     2.0615      0.000150
     2.0620      0.001240
     2.0625      0.000630
     2.0630      0.000000
     2.0635      0.000000
     2.0640      0.000450
     2.0645      0.000660
     2.0650      0.000090
     2.0655      0.000000
     2.0660      0.000000
     2.0665      0.000010
     2.0670      0.000020
     2.0675      0.000000
     2.0680      0.000000
     2.0685      0.000000
     2.0690      0.000000
     2.0695      0.000000
     2.0700      0.000000
     2.0705      0.000000
     2.0710      0.000170
     2.0715      0.000960
     2.0720      0.000880
     2.0725      0.000600
     2.0730      0.000230
     2.0735      0.000000
     2.0740      0.000000
     2.0745      0.000000
     2.0750      0.000000
     2.0755      0.000000
     2.0760      0.000000
     2.0765      0.000000
     2.0770      0.000000
     2.0775      0.000000
     2.0780      0.000110
     2.0785      0.000390
     2.0790      0.000220
     2.0795      0.000270
     2.0800      0.000040
     2.0805      0.000000
     2.0810      0.000140
     2.0815      0.000350
     2.0820      0.000280
     2.0825      0.000070
     2.0830      0.000000
     2.0835      0.000000
     2.0840      0.000000
     2.0845      0.000000
     2.0850      0.000190
     2.0855      0.000000
     2.0860      0.000000
     2.0865      0.000080
     2.0870      0.000100
     2.0875      0.000010
     2.0880      0.000000
     2.0885      0.000520
     2.0890      0.000490
     2.0895      0.000180
     2.0900      0.000580
     2.0905      0.000550
     2.0910      0.000360
     2.0915      0.000320
     2.0920      0.000120
     2.0925      0.000000
     2.0930      0.000000
     2.0935      0.000410
     2.0940      0.001630
     2.0945      0.001880
     2.0950      0.001280
     2.0955      0.000250
     2.0960      0.000000
     2.0965      0.000270
     2.0970      0.000900
     2.0975      0.001430
     2.0980      0.000540
     2.0985      0.000690
     2.0990      0.001120
     2.0995      0.000690
     2.1000      0.000500
     2.1005      0.000110
     2.1010      0.000000
     2.1015      0.000000
     2.1020      0.000000
     2.1025      0.000000
     2.1030      0.000000
     2.1035      0.000000
     2.1040      0.000000
     2.1045      0.000000
     2.1050      0.000000
     2.1055      0.000000
     2.1060      0.000000
     2.1065      0.000090
     2.1070      0.000040
     2.1075      0.000000
     2.1080      0.000430
     2.1085      0.000350
     2.1090      0.000050
     2.1095      0.000120
     2.1100      0.000030
     2.1105      0.000090
     2.1110      0.000880
     2.1115      0.000820
     2.1120      0.000000
     2.1125      0.000090
     2.1130      0.000040
     2.1135      0.000000
     2.1140      0.000000
     2.1145      0.000000
     2.1150      0.000000
     2.1155      0.000000
     2.1160      0.000000
     2.1165      0.000000
     2.1170      0.000100
     2.1175      0.000110
     2.1180      0.000140
     2.1185      0.000160
     2.1190      0.000000
     2.1195      0.000000
     2.1200      0.000460
     2.1205      0.000700
     2.1210      0.000000
     2.1215      0.000000
     2.1220      0.000000
     2.1225      0.000020
     2.1230      0.000010
     2.1235      0.000000
     2.1240      0.000060
     2.1245      0.000000
     2.1250      0.000000
     2.1255      0.000000
     2.1260      0.000000
     2.1265      0.000000
     2.1270      0.000000
     2.1275      0.000000
     2.1280      0.000000
     2.1285      0.000020
     2.1290      0.000020
     2.1295      0.000000
     2.1300      0.000000
     2.1305      0.000010
     2.1310      0.000020
     2.1315      0.000000
     2.1320      0.000000
     2.1325      0.000020
     2.1330      0.000130
     2.1335      0.000160
     2.1340      0.000250
     2.1345      0.000320
     2.1350      0.000000
     2.1355      0.000000
     2.1360      0.000000
     2.1365      0.000210
     2.1370      0.000640
     2.1375      0.000390
     2.1380      0.000000
     2.1385      0.000000
     2.1390      0.000000
     2.1395      0.000000
     2.1400      0.000000
     2.1405      0.000210
     2.1410      0.000410
     2.1415      0.000660
     2.1420      0.000740
     2.1425      0.000900
     2.1430      0.001250
     2.1435      0.000650
     2.1440      0.000060
     2.1445      0.000000
     2.1450      0.000230
     2.1455      0.000000
     2.1460      0.000000
     2.1465      0.000000
     2.1470      0.000000
     2.1475      0.000080
     2.1480      0.000230
     2.1485      0.000050
     2.1490      0.000000
     2.1495      0.000230
     2.1500      0.000160
     2.1505      0.000060
     2.1510      0.000410
     2.1515      0.000720
     2.1520      0.000650
     2.1525      0.000160
     2.1530      0.000000
     2.1535      0.000160
     2.1540      0.000120
     2.1545      0.000140
     2.1550      0.000420
     2.1555      0.000230
     2.1560      0.000560
     2.1565      0.000880
     2.1570      0.000520
     2.1575      0.000240
     2.1580      0.000340
     2.1585      0.000730
     2.1590      0.000290
     2.1595      0.000150
     2.1600      0.000260
     2.1605      0.000050
     2.1610      0.000000
     2.1615      0.000170
     2.1620      0.000100
     2.1625      0.000020
     2.1630      0.000430
     2.1635      0.000170
     2.1640      0.000420
     2.1645      0.001450
     2.1650      0.001470
     2.1655      0.000820
     2.1660      0.000400
     2.1665      0.000140
     2.1670      0.000000
     2.1675      0.000000
     2.1680      0.000000
     2.1685      0.000000
     2.1690      0.000000
     2.1695      0.000060
     2.1700      0.000250
     2.1705      0.000680
     2.1710      0.001010
     2.1715      0.000280
     2.1720      0.000000
     2.1725      0.000000
     2.1730      0.000000
     2.1735      0.000030
     2.1740      0.000120
     2.1745      0.000400
     2.1750      0.000840
     2.1755      0.000840
     2.1760      0.000410
     2.1765      0.000030
     2.1770      0.000000
     2.1775      0.000370
     2.1780      0.001000
     2.1785      0.000390
     2.1790      0.000000
     2.1795      0.000000
     2.1800      0.000000
     2.1805      0.000170
     2.1810      0.000800
     2.1815      0.001530
     2.1820      0.000960
     2.1825      0.000010
     2.1830      0.000460
     2.1835      0.000670
     2.1840      0.000230
     2.1845      0.000260
     2.1850      0.000190
     2.1855      0.000000
     2.1860      0.000280
     2.1865      0.000680
     2.1870      0.000570
     2.1875      0.000670
     2.1880      0.000430
     2.1885      0.000000
     2.1890      0.000010
     2.1895      0.000170
     2.1900      0.000630
     2.1905      0.000520
     2.1910      0.000150
     2.1915      0.000000
     2.1920      0.000210
     2.1925      0.000290
     2.1930      0.000070
     2.1935      0.000000
     2.1940      0.000000
     2.1945      0.000410
     2.1950      0.000270
     2.1955      0.000000
     2.1960      0.000000
     2.1965      0.000000
     2.1970      0.000000
     2.1975      0.000000
     2.1980      0.000010
     2.1985      0.000620
     2.1990      0.000750
     2.1995      0.000160
     2.2000      0.000000
     2.2005      0.000000
     2.2010      0.000000
     2.2015      0.000280
     2.2020      0.000420
     2.2025      0.000030
     2.2030      0.000000
     2.2035      0.000140
     2.2040      0.000460
     2.2045      0.000320
     2.2050      0.000580
     2.2055      0.000930
     2.2060      0.000850
     2.2065      0.000560
     2.2070      0.000130
     2.2075      0.000000
     2.2080      0.000000
     2.2085      0.000000
     2.2090      0.000000
     2.2095      0.000000
     2.2100      0.000000
     2.2105      0.000000
     2.2110      0.000000
     2.2115      0.000000
     2.2120      0.000000
     2.2125      0.000000
     2.2130      0.000390
     2.2135      0.000740
     2.2140      0.000280
     2.2145      0.000000
     2.2150      0.000380
     2.2155      0.000380
     2.2160      0.000180
     2.2165      0.000070
     2.2170      0.000000
     2.2175      0.000000
     2.2180      0.000030
     2.2185      0.000000
     2.2190      0.000000
     2.2195      0.000000
     2.2200      0.000000
     2.2205      0.000000
     2.2210      0.000000
     2.2215      0.000000
     2.2220      0.000000
     2.2225      0.000000
     2.2230      0.000000
     2.2235      0.000330
     2.2240      0.000380
     2.2245      0.000090
     2.2250      0.000100
     2.2255      0.000420
     2.2260      0.000210
     2.2265      0.000020
     2.2270      0.000000
     2.2275      0.000000
     2.2280      0.000620
     2.2285      0.000680
     2.2290      0.000180
     2.2295      0.000590
     2.2300      0.000890
     2.2305      0.000000
     2.2310      0.000000
     2.2315      0.000000
     2.2320      0.000000
     2.2325      0.000040
     2.2330      0.000280
     2.2335      0.000460
     2.2340      0.000190
     2.2345      0.000000
     2.2350      0.000000
     2.2355      0.000000
     2.2360      0.000010
     2.2365      0.000000
     2.2370      0.000000
     2.2375      0.000000
     2.2380      0.000000
     2.2385      0.000000
     2.2390      0.000000
     2.2395      0.000000
     2.2400      0.000000
     2.2405      0.000000
     2.2410      0.000000
     2.2415      0.000000
     2.2420      0.000000
     2.2425      0.000000
     2.2430      0.000000
     2.2435      0.000000
     2.2440      0.000000
     2.2445      0.000000
     2.2450      0.000000
     2.2455      0.000000
     2.2460      0.000000
     2.2465      0.000000
     2.2470      0.000000
     2.2475      0.000000
     2.2480      0.000000
     2.2485      0.000000
     2.2490      0.000000
     2.2495      0.000120
     2.2500      0.000120
     2.2505      0.000000
     2.2510      0.000000
     2.2515      0.000000
     2.2520      0.000000
     2.2525      0.000000
     2.2530      0.000000
     2.2535      0.000000
     2.2540      0.000000
     2.2545      0.000000
     2.2550      0.000000
     2.2555      0.000000
     2.2560      0.000000
     2.2565      0.000000
     2.2570      0.000000
     2.2575      0.000000
     2.2580      0.000460
     2.2585      0.000170
     2.2590      0.000010
     2.2595      0.000000
     2.2600      0.000000
     2.2605      0.000000
     2.2610      0.000000
     2.2615      0.000000
     2.2620      0.000000
     2.2625      0.000000
     2.2630      0.000000
     2.2635      0.000000
     2.2640      0.000000
     2.2645      0.000000
     2.2650      0.000000
     2.2655      0.000000
     2.2660      0.000000
     2.2665      0.000000
     2.2670      0.000000
     2.2675      0.000000
     2.2680      0.000000
     2.2685      0.000000
     2.2690      0.000030
     2.2695      0.000220
     2.2700      0.000000
     2.2705      0.000000
     2.2710      0.000000
     2.2715      0.000000
     2.2720      0.000000
     2.2725      0.000170
     2.2730      0.001160
     2.2735      0.001290
     2.2740      0.000540
     2.2745      0.000010
     2.2750      0.000030
     2.2755      0.000220
     2.2760      0.000520
     2.2765      0.000660
     2.2770      0.000800
     2.2775      0.001090
     2.2780      0.000910
     2.2785      0.000170
     2.2790      0.000000
     2.2795      0.000050
     2.2800      0.000250
     2.2805      0.000060
     2.2810      0.000050
     2.2815      0.000050
     2.2820      0.000000
     2.2825      0.000000
     2.2830      0.000000
     2.2835      0.000060
     2.2840      0.000430
     2.2845      0.000260
     2.2850      0.000020
     2.2855      0.000240
     2.2860      0.000820
     2.2865      0.000850
     2.2870      0.000970
     2.2875      0.001150
     2.2880      0.001440
     2.2885      0.001880
     2.2890      0.002070
     2.2895      0.002170
     2.2900      0.002240
     2.2905      0.002230
     2.2910      0.002240
     2.2915      0.002000
     2.2920      0.001710
     2.2925      0.001570
     2.2930      0.001640
     2.2935      0.002470
     2.2940      0.003410
     2.2945      0.003660
     2.2950      0.003880
     2.2955      0.003870
     2.2960      0.003810
     2.2965      0.004730
     2.2970      0.005950
     2.2975      0.006340
     2.2980      0.006030
     2.2985      0.006170
     2.2990      0.006950
     2.2995      0.007790
     2.3000      0.008790
     2.3005      0.009540
     2.3010      0.009750
     2.3015      0.010240
     2.3020      0.011420
     2.3025      0.012720
     2.3030      0.013650
     2.3035      0.014240
     2.3040      0.014930
     2.3045      0.015960
     2.3050      0.016740
     2.3055      0.017000
     2.3060      0.017460
     2.3065      0.018180
     2.3070      0.018660
     2.3075      0.019120
     2.3080      0.019520
     2.3085      0.019430
     2.3090      0.019090
     2.3095      0.018690
     2.3100      0.018190
     2.3105      0.017240
     2.3110      0.016150
     2.3115      0.015850
     2.3120      0.015710
     2.3125      0.014950
     2.3130      0.013950
     2.3135      0.013570
     2.3140      0.013700
     2.3145      0.012960
     2.3150      0.012180
     2.3155      0.011760
     2.3160      0.010790
     2.3165      0.010210
     2.3170      0.010140
     2.3175      0.009320
     2.3180      0.008120
     2.3185      0.007710
     2.3190      0.007730
     2.3195      0.007040
     2.3200      0.006240
     2.3205      0.006380
     2.3210      0.006650
     2.3215      0.006130
     2.3220      0.005430
     2.3225      0.004930
     2.3230      0.004400
     2.3235      0.004200
     2.3240      0.004540
     2.3245      0.004920
     2.3250      0.005010
     2.3255      0.004430
     2.3260      0.003390
     2.3265      0.003200
     2.3270      0.003620
     2.3275      0.003850
     2.3280      0.004230
     2.3285      0.003950
     2.3290      0.003370
     2.3295      0.003830
     2.3300      0.004740
     2.3305      0.004660
     2.3310      0.003100
     2.3315      0.001330
     2.3320      0.000990
     2.3325      0.001520
     2.3330      0.001540
     2.3335      0.001480
     2.3340      0.002020
     2.3345      0.002330
     2.3350      0.002020
     2.3355      0.001820
     2.3360      0.001740
     2.3365      0.001560
     2.3370      0.001650
     2.3375      0.002120
     2.3380      0.002530
     2.3385      0.002770
     2.3390      0.002930
     2.3395      0.002850
     2.3400      0.002520
     2.3405      0.002070
     2.3410      0.001690
     2.3415      0.001380
     2.3420      0.001190
     2.3425      0.001430
     2.3430      0.001840
     2.3435      0.001930
     2.3440      0.001910
     2.3445      0.002220
     2.3450      0.002580
     2.3455      0.002620
     2.3460      0.002270
     2.3465      0.001880
     2.3470      0.001540
     2.3475      0.001740
     2.3480      0.002470
     2.3485      0.002430
     2.3490      0.002030
     2.3495      0.002120
     2.3500      0.002360
     2.3505      0.002330
     2.3510      0.001990
     2.3515      0.001890
     2.3520      0.002250
     2.3525      0.002310
     2.3530      0.001750
     2.3535      0.001750
     2.3540      0.002450
     2.3545      0.002580
     2.3550      0.002180
     2.3555      0.002020
     2.3560      0.001850
     2.3565      0.001380
     2.3570      0.001390
     2.3575      0.002010
     2.3580      0.002280
     2.3585      0.001990
     2.3590      0.001750
     2.3595      0.001890
     2.3600      0.002140
     2.3605      0.002320
     2.3610      0.002370
     2.3615      0.002190
     2.3620      0.001960
     2.3625      0.001910
     2.3630      0.001840
     2.3635      0.002150
     2.3640      0.002590
     2.3645      0.002350
     2.3650      0.002030
     2.3655      0.002380
     2.3660      0.002860
     2.3665      0.002720
     2.3670      0.002210
     2.3675      0.001940
     2.3680      0.001890
     2.3685      0.002140
     2.3690      0.002700
     2.3695      0.003060
     2.3700      0.002890
     2.3705      0.002090
     2.3710      0.001900
     2.3715      0.002350
     2.3720      0.002300
     2.3725      0.002080
     2.3730      0.002560
     2.3735      0.003290
     2.3740      0.003180
     2.3745      0.002240
     2.3750      0.001160
     2.3755      0.001330
     2.3760      0.002650
     2.3765      0.003200
     2.3770      0.002960
     2.3775      0.002700
     2.3780      0.002760
     2.3785      0.002950
     2.3790      0.002860
     2.3795      0.002400
     2.3800      0.002230
     2.3805      0.002990
     2.3810      0.003700
     2.3815      0.003300
     2.3820      0.003240
     2.3825      0.003470
     2.3830      0.003150
     2.3835      0.002550
     2.3840      0.002050
     2.3845      0.002050
     2.3850      0.002700
     2.3855      0.003410
     2.3860      0.003370
     2.3865      0.002900
     2.3870      0.002690
     2.3875      0.002470
     2.3880      0.002420
     2.3885      0.002820
     2.3890      0.003230
     2.3895      0.003470
     2.3900      0.003780
     2.3905      0.004110
     2.3910      0.004120
     2.3915      0.003670
     2.3920      0.003150
     2.3925      0.003090
     2.3930      0.003230
     2.3935      0.002540
     2.3940      0.002160
     2.3945      0.002620
     2.3950      0.002980
     2.3955      0.002960
     2.3960      0.002930
     2.3965      0.002950
     2.3970      0.002860
     2.3975      0.003190
     2.3980      0.003810
     2.3985      0.003820
     2.3990      0.003570
     2.3995      0.003760
     2.4000      0.004040
     2.4005      0.004170
     2.4010      0.004310
     2.4015      0.004610
     2.4020      0.004760
     2.4025      0.004740
     2.4030      0.004300
     2.4035      0.003890
     2.4040      0.003840
     2.4045      0.003780
     2.4050      0.003880
     2.4055      0.004110
     2.4060      0.004300
     2.4065      0.004420
     2.4070      0.004460
     2.4075      0.004010
     2.4080      0.003670
     2.4085      0.003570
     2.4090      0.003460
     2.4095      0.003620
     2.4100      0.004010
     2.4105      0.004380
     2.4110      0.004660
     2.4115      0.004850
     2.4120      0.004440
     2.4125      0.003710
     2.4130      0.004520
     2.4135      0.005920
     2.4140      0.006270
     2.4145      0.005670
     2.4150      0.005030
     2.4155      0.004930
     2.4160      0.005300
     2.4165      0.005850
     2.4170      0.006140
     2.4175      0.006330
     2.4180      0.006840
     2.4185      0.007460
     2.4190      0.007980
     2.4195      0.008400
     2.4200      0.008650
     2.4205      0.008300
     2.4210      0.007320
     2.4215      0.007210
     2.4220      0.007840
     2.4225      0.008190
     2.4230      0.008510
     2.4235      0.008990
     2.4240      0.009250
     2.4245      0.008940
     2.4250      0.008750
     2.4255      0.009610
     2.4260      0.009940
     2.4265      0.009640
     2.4270      0.010170
     2.4275      0.011050
     2.4280      0.011280
     2.4285      0.010840
     2.4290      0.010840
     2.4295      0.011360
     2.4300      0.011940
     2.4305      0.012650
     2.4310      0.013150
     2.4315      0.013370
     2.4320      0.013490
     2.4325      0.013730
     2.4330      0.014040
     2.4335      0.014060
     2.4340      0.013900
     2.4345      0.014440
     2.4350      0.015300
     2.4355      0.015730
     2.4360      0.015750
     2.4365      0.016000
     2.4370      0.016840
     2.4375      0.017490
     2.4380      0.017720
     2.4385      0.018060
     2.4390      0.018400
     2.4395      0.018670
     2.4400      0.018710
     2.4405      0.018560
     2.4410      0.018580
     2.4415      0.018920
     2.4420      0.019040
     2.4425      0.019280
     2.4430      0.019550
     2.4435      0.019570
     2.4440      0.019420
     2.4445      0.019340
     2.4450      0.019400
     2.4455      0.019580
     2.4460      0.019980
     2.4465      0.020490
     2.4470      0.021130
     2.4475      0.021600
     2.4480      0.021630
     2.4485      0.021380
     2.4490      0.021790
     2.4495      0.022210
     2.4500      0.022000
     2.4505      0.022050
     2.4510      0.022340
     2.4515      0.022540
     2.4520      0.022570
     2.4525      0.022720
     2.4530      0.022510
     2.4535      0.022330
     2.4540      0.022340
     2.4545      0.022520
     2.4550      0.022910
     2.4555      0.023380
     2.4560      0.023430
     2.4565      0.023200
     2.4570      0.023200
     2.4575      0.023190
     2.4580      0.023210
     2.4585      0.023290
     2.4590      0.023310
     2.4595      0.023110
     2.4600      0.022890
     2.4605      0.022980
     2.4610      0.023020
     2.4615      0.023020
     2.4620      0.023220
     2.4625      0.023570
     2.4630      0.023480
     2.4635      0.023190
     2.4640      0.023570
     2.4645      0.023910
     2.4650      0.024170
     2.4655      0.024340
     2.4660      0.024430
     2.4665      0.024490
     2.4670      0.024900
     2.4675      0.024720
     2.4680      0.024110
     2.4685      0.023790
     2.4690      0.024220
     2.4695      0.025210
     2.4700      0.025630
     2.4705      0.024590
     2.4710      0.024330
     2.4715      0.024920
     2.4720      0.025460
     2.4725      0.025370
     2.4730      0.025000
     2.4735      0.025050
     2.4740      0.025170
     2.4745      0.025070
     2.4750      0.025130
     2.4755      0.025630
     2.4760      0.026540
     2.4765      0.027460
     2.4770      0.027730
     2.4775      0.027270
     2.4780      0.026780
     2.4785      0.026790
     2.4790      0.027480
     2.4795      0.028510
     2.4800      0.028660
     2.4805      0.027710
     2.4810      0.027110
     2.4815      0.027290
     2.4820      0.028170
     2.4825      0.029180
     2.4830      0.029230
     2.4835      0.028510
     2.4840      0.028640
     2.4845      0.028800
     2.4850      0.028650
     2.4855      0.028520
     2.4860      0.029320
     2.4865      0.029570
     2.4870      0.029390
     2.4875      0.029490
     2.4880      0.029660
     2.4885      0.029570
     2.4890      0.029200
     2.4895      0.029190
     2.4900      0.029440
     2.4905      0.029320
     2.4910      0.028860
     2.4915      0.028500
     2.4920      0.028880
     2.4925      0.029420
     2.4930      0.029280
     2.4935      0.029040
     2.4940      0.028880
     2.4945      0.028760
     2.4950      0.028530
     2.4955      0.028420
     2.4960      0.028310
     2.4965      0.028440
     2.4970      0.028820
     2.4975      0.029230
     2.4980      0.029200
     2.4985      0.028910
     2.4990      0.028500
     2.4995      0.028040
     2.5000      0.027700
     2.5005      0.027510
     2.5010      0.027160
     2.5015      0.027020
     2.5020      0.027310
     2.5025      0.027420
     2.5030      0.027140
     2.5035      0.026610
     2.5040      0.026270
     2.5045      0.026610
     2.5050      0.026950
     2.5055      0.027050
     2.5060      0.026910
     2.5065      0.026650
     2.5070      0.026240
     2.5075      0.026030
     2.5080      0.025920
     2.5085      0.025830
     2.5090      0.025850
     2.5095      0.026140
     2.5100      0.026330
     2.5105      0.026200
     2.5110      0.025960
     2.5115      0.025730
     2.5120      0.025680
     2.5125      0.025920
     2.5130      0.025660
     2.5135      0.025130
     2.5140      0.024850
     2.5145      0.024890
     2.5150      0.025000
     2.5155      0.025080
     2.5160      0.024960
     2.5165      0.024540
     2.5170      0.024380
     2.5175      0.024810
     2.5180      0.025680
     2.5185      0.025560
     2.5190      0.025310
     2.5195      0.025320
     2.5200      0.025500
     2.5205      0.025630
     2.5210      0.025930
     2.5215      0.026090
     2.5220      0.026020
     2.5225      0.025970
     2.5230      0.026090
     2.5235      0.026350
     2.5240      0.026680
     2.5245      0.026530
     2.5250      0.026200
     2.5255      0.025920
     2.5260      0.025770
     2.5265      0.025130
     2.5270      0.025420
     2.5275      0.026300
     2.5280      0.026990
     2.5285      0.026950
     2.5290      0.026810
     2.5295      0.027230
     2.5300      0.027980
     2.5305      0.028580
     2.5310      0.028660
     2.5315      0.028120
     2.5320      0.028430
     2.5325      0.029210
     2.5330      0.030110
     2.5335      0.030860
     2.5340      0.031270
     2.5345      0.031030
     2.5350      0.030860
     2.5355      0.030560
     2.5360      0.030340
     2.5365      0.030640
     2.5370      0.032330
     2.5375      0.033320
     2.5380      0.033610
     2.5385      0.033640
     2.5390      0.033930
     2.5395      0.033960
     2.5400      0.034130
     2.5405      0.034580
     2.5410      0.035030
     2.5415      0.035260
     2.5420      0.035780
     2.5425      0.036850
     2.5430      0.037720
     2.5435      0.038250
     2.5440      0.038520
     2.5445      0.038830
     2.5450      0.039190
     2.5455      0.039600
     2.5460      0.039960
     2.5465      0.040240
     2.5470      0.040770
     2.5475      0.041810
     2.5480      0.042670
     2.5485      0.043110
     2.5490      0.043110
     2.5495      0.043040
     2.5500      0.043400
     2.5505      0.044220
     2.5510      0.045170
     2.5515      0.045870
     2.5520      0.046010
     2.5525      0.046170
     2.5530      0.046470
     2.5535      0.046970
     2.5540      0.047690
     2.5545      0.048820
     2.5550      0.049880
     2.5555      0.050460
     2.5560      0.050610
     2.5565      0.050570
     2.5570      0.050710
     2.5575      0.050750
     2.5580      0.050990
     2.5585      0.051570
     2.5590      0.052570
     2.5595      0.053460
     2.5600      0.053800
     2.5605      0.053680
     2.5610      0.053400
     2.5615      0.053610
     2.5620      0.053980
     2.5625      0.053990
     2.5630      0.053900
     2.5635      0.054020
     2.5640      0.054540
     2.5645      0.054960
     2.5650      0.055060
     2.5655      0.054810
     2.5660      0.054270
     2.5665      0.053700
     2.5670      0.053580
     2.5675      0.054020
     2.5680      0.054750
     2.5685      0.055130
     2.5690      0.054200
     2.5695      0.053360
     2.5700      0.052850
     2.5705      0.052730
     2.5710      0.052620
     2.5715      0.052850
     2.5720      0.053180
     2.5725      0.053440
     2.5730      0.053450
     2.5735      0.053320
     2.5740      0.052710
     2.5745      0.051880
     2.5750      0.051080
     2.5755      0.050730
     2.5760      0.050410
     2.5765      0.050280
     2.5770      0.050300
     2.5775      0.050360
     2.5780      0.049870
     2.5785      0.049310
     2.5790      0.049010
     2.5795      0.049070
     2.5800      0.049490
     2.5805      0.050310
     2.5810      0.050660
     2.5815      0.050360
     2.5820      0.049420
     2.5825      0.048720
     2.5830      0.048560
     2.5835      0.048580
     2.5840      0.048700
     2.5845      0.048910
     2.5850      0.048960
     2.5855      0.048690
     2.5860      0.048200
     2.5865      0.047600
     2.5870      0.047120
     2.5875      0.046840
     2.5880      0.046870
     2.5885      0.047250
     2.5890      0.048080
     2.5895      0.048660
     2.5900      0.048630
     2.5905      0.048140
     2.5910      0.047460
     2.5915      0.047320
     2.5920      0.047460
     2.5925      0.047770
     2.5930      0.048260
     2.5935      0.049080
     2.5940      0.049030
     2.5945      0.048640
     2.5950      0.048430
     2.5955      0.049130
     2.5960      0.048720
     2.5965      0.047870
     2.5970      0.047530
     2.5975      0.048360
     2.5980      0.049160
     2.5985      0.049480
     2.5990      0.049900
     2.5995      0.050640
     2.6000      0.051490
     2.6005      0.052250
     2.6010      0.053010
     2.6015      0.053750
     2.6020      0.054360
     2.6025      0.054110
     2.6030      0.053920
     2.6035      0.054100
     2.6040      0.054880
     2.6045      0.054690
     2.6050      0.054550
     2.6055      0.055120
     2.6060      0.056630
     2.6065      0.057890
     2.6070      0.058620
     2.6075      0.059260
     2.6080      0.059930
     2.6085      0.060580
     2.6090      0.061420
     2.6095      0.062620
     2.6100      0.064080
     2.6105      0.065350
     2.6110      0.065960
     2.6115      0.066790
     2.6120      0.067890
     2.6125      0.069190
     2.6130      0.069920
     2.6135      0.070680
     2.6140      0.071690
     2.6145      0.073160
     2.6150      0.074710
     2.6155      0.076050
     2.6160      0.077340
     2.6165      0.078730
     2.6170      0.080280
     2.6175      0.082230
     2.6180      0.084360
     2.6185      0.086450
     2.6190      0.087720
     2.6195      0.089180
     2.6200      0.091030
     2.6205      0.093330
     2.6210      0.095840
     2.6215      0.098520
     2.6220      0.101200
     2.6225      0.103810
     2.6230      0.106410
     2.6235      0.108910
     2.6240      0.111310
     2.6245      0.113720
     2.6250      0.116570
     2.6255      0.119690
     2.6260      0.122650
     2.6265      0.125380
     2.6270      0.128050
     2.6275      0.131450
     2.6280      0.135350
     2.6285      0.139580
     2.6290      0.143830
     2.6295      0.147970
     2.6300      0.152020
     2.6305      0.156070
     2.6310      0.160390
     2.6315      0.165590
     2.6320      0.171110
     2.6325      0.176640
     2.6330      0.181440
     2.6335      0.186180
     2.6340      0.191300
     2.6345      0.196860
     2.6350      0.202600
     2.6355      0.208380
     2.6360      0.214220
     2.6365      0.220150
     2.6370      0.226250
     2.6375      0.232690
     2.6380      0.239360
     2.6385      0.246200
     2.6390      0.253190
     2.6395      0.260380
     2.6400      0.267640
     2.6405      0.274900
     2.6410      0.282240
     2.6415      0.289920
     2.6420      0.297840
     2.6425      0.305930
     2.6430      0.314310
     2.6435      0.322350
     2.6440      0.329770
     2.6445      0.336290
     2.6450      0.342990
     2.6455      0.350240
     2.6460      0.357860
     2.6465      0.365680
     2.6470      0.373830
     2.6475      0.381680
     2.6480      0.389190
     2.6485      0.396250
     2.6490      0.403520
     2.6495      0.410850
     2.6500      0.418140
     2.6505      0.425150
     2.6510      0.432160
     2.6515      0.439140
     2.6520      0.445960
     2.6525      0.451900
     2.6530      0.457580
     2.6535      0.463270
     2.6540      0.469070
     2.6545      0.474190
     2.6550      0.479200
     2.6555      0.484210
     2.6560      0.489330
     2.6565      0.493680
     2.6570      0.498060
     2.6575      0.502510
     2.6580      0.507150
     2.6585      0.510360
     2.6590      0.513080
     2.6595      0.515730
     2.6600      0.519580
     2.6605      0.523090
     2.6610      0.525700
     2.6615      0.527210
     2.6620      0.528570
     2.6625      0.529590
     2.6630      0.529600
     2.6635      0.527860
     2.6640      0.525320
     2.6645      0.523560
     2.6650      0.522420
     2.6655      0.521480
     2.6660      0.520330
     2.6665      0.519600
     2.6670      0.519470
     2.6675      0.520170
     2.6680      0.520940
     2.6685      0.521880
     2.6690      0.523050
     2.6695      0.523880
     2.6700      0.523750
     2.6705      0.523030
     2.6710      0.522250
     2.6715      0.521700
     2.6720      0.520960
     2.6725      0.520020
     2.6730      0.519300
     2.6735      0.518110
     2.6740      0.516140
     2.6745      0.513040
     2.6750      0.509280
     2.6755      0.505500
     2.6760      0.501410
     2.6765      0.496200
     2.6770      0.489010
     2.6775      0.481080
     2.6780      0.472700
     2.6785      0.464070
     2.6790      0.454790
     2.6795      0.444860
     2.6800      0.434120
     2.6805      0.421920
     2.6810      0.409020
     2.6815      0.395580
     2.6820      0.381920
     2.6825      0.368400
     2.6830      0.354900
     2.6835      0.341370
     2.6840      0.326860
     2.6845      0.311800
     2.6850      0.296300
     2.6855      0.280590
     2.6860      0.265870
     2.6865      0.251900
     2.6870      0.238670
     2.6875      0.225270
     2.6880      0.212500
     2.6885      0.200310
     2.6890      0.188810
     2.6895      0.176970
     2.6900      0.165570
     2.6905      0.154820
     2.6910      0.145220
     2.6915      0.135800
     2.6920      0.126650
     2.6925      0.118020
     2.6930      0.109690
     2.6935      0.101770
     2.6940      0.094330
     2.6945      0.088090
     2.6950      0.082170
     2.6955      0.076580
     2.6960      0.071480
     2.6965      0.066970
     2.6970      0.062650
     2.6975      0.058450
     2.6980      0.054690
     2.6985      0.051080
     2.6990      0.047600
     2.6995      0.044350
     2.7000      0.041790
     2.7005      0.039360
     2.7010      0.036930
     2.7015      0.033990
     2.7020      0.031510
     2.7025      0.029510
     2.7030      0.028280
     2.7035      0.026840
     2.7040      0.025190
     2.7045      0.023300
     2.7050      0.021460
     2.7055      0.020000
     2.7060      0.019050
     2.7065      0.019380
     2.7070      0.019560
     2.7075      0.019090
     2.7080      0.017450
     2.7085      0.016190
     2.7090      0.015340
     2.7095      0.014820
     2.7100      0.013810
     2.7105      0.012820
     2.7110      0.011960
     2.7115      0.011420
     2.7120      0.011440
     2.7125      0.011550
     2.7130      0.011610
     2.7135      0.010810
     2.7140      0.010130
     2.7145      0.009520
     2.7150      0.008860
     2.7155      0.008350
     2.7160      0.008230
     2.7165      0.008860
     2.7170      0.009210
     2.7175      0.009350
     2.7180      0.009270
     2.7185      0.009370
     2.7190      0.009110
     2.7195      0.008650
     2.7200      0.008320
     2.7205      0.008630
     2.7210      0.009110
     2.7215      0.009550
     2.7220      0.009510
     2.7225      0.009510
     2.7230      0.009600
     2.7235      0.009730
     2.7240      0.008940
     2.7245      0.007550
     2.7250      0.006010
     2.7255      0.005660
     2.7260      0.005810
     2.7265      0.006190
     2.7270      0.006640
     2.7275      0.006980
     2.7280      0.007160
     2.7285      0.006360
     2.7290      0.006000
     2.7295      0.006120
     2.7300      0.007130
     2.7305      0.007580
     2.7310      0.007640
     2.7315      0.007220
     2.7320      0.006970
     2.7325      0.006910
     2.7330      0.007060
     2.7335      0.007020
     2.7340      0.006770
     2.7345      0.006400
     2.7350      0.006770
     2.7355      0.007200
     2.7360      0.007530
     2.7365      0.007310
     2.7370      0.007110
     2.7375      0.006810
     2.7380      0.006280
     2.7385      0.006120
     2.7390      0.006480
     2.7395      0.007480
     2.7400      0.008100
     2.7405      0.008140
     2.7410      0.007600
     2.7415      0.006530
     2.7420      0.005990
     2.7425      0.006000
     2.7430      0.007050
     2.7435      0.007900
     2.7440      0.008310
     2.7445      0.007720
     2.7450      0.006670
     2.7455      0.005820
     2.7460      0.005530
     2.7465      0.006170
     2.7470      0.006910
     2.7475      0.007670
     2.7480      0.007540
     2.7485      0.007480
     2.7490      0.007540
     2.7495      0.008150
     2.7500      0.008240
     2.7505      0.008050
     2.7510      0.008000
     2.7515      0.008390
     2.7520      0.008750
     2.7525      0.008480
     2.7530      0.007960
     2.7535      0.007450
     2.7540      0.007080
     2.7545      0.006720
     2.7550      0.006590
     2.7555      0.006840
     2.7560      0.007700
     2.7565      0.008510
     2.7570      0.009190
     2.7575      0.009490
     2.7580      0.009700
     2.7585      0.009780
     2.7590      0.009320
     2.7595      0.008950
     2.7600      0.008720
     2.7605      0.009130
     2.7610      0.009580
     2.7615      0.010070
     2.7620      0.010630
     2.7625      0.010670
     2.7630      0.010310
     2.7635      0.009400
     2.7640      0.009280
     2.7645      0.009470
     2.7650      0.009830
     2.7655      0.009570
     2.7660      0.009320
     2.7665      0.009350
     2.7670      0.009860
     2.7675      0.010440
     2.7680      0.011020
     2.7685      0.011550
     2.7690      0.011960
     2.7695      0.012220
     2.7700      0.012180
     2.7705      0.012010
     2.7710      0.011710
     2.7715      0.011560
     2.7720      0.011620
     2.7725      0.011890
     2.7730      0.012140
     2.7735      0.012480
     2.7740      0.012890
     2.7745      0.013440
     2.7750      0.013520
     2.7755      0.013290
     2.7760      0.013060
     2.7765      0.013250
     2.7770      0.013690
     2.7775      0.014000
     2.7780      0.014200
     2.7785      0.014300
     2.7790      0.014130
     2.7795      0.014180
     2.7800      0.014470
     2.7805      0.015410
     2.7810      0.016100
     2.7815      0.016680
     2.7820      0.017300
     2.7825      0.017900
     2.7830      0.018310
     2.7835      0.017980
     2.7840      0.017960
     2.7845      0.018130
     2.7850      0.018600
     2.7855      0.018530
     2.7860      0.018410
     2.7865      0.018780
     2.7870      0.020060
     2.7875      0.021570
     2.7880      0.022740
     2.7885      0.023300
     2.7890      0.023620
     2.7895      0.023900
     2.7900      0.023990
     2.7905      0.024090
     2.7910      0.024430
     2.7915      0.025270
     2.7920      0.026230
     2.7925      0.026900
     2.7930      0.027590
     2.7935      0.028380
     2.7940      0.029550
     2.7945      0.030210
     2.7950      0.030660
     2.7955      0.031040
     2.7960      0.031960
     2.7965      0.033080
     2.7970      0.034080
     2.7975      0.035020
     2.7980      0.035960
     2.7985      0.037010
     2.7990      0.037880
     2.7995      0.038650
     2.8000      0.039390
     2.8005      0.040190
     2.8010      0.041070
     2.8015      0.042160
     2.8020      0.043160
     2.8025      0.044060
     2.8030      0.044310
     2.8035      0.044770
     2.8040      0.045420
     2.8045      0.047010
     2.8050      0.048570
     2.8055      0.050110
     2.8060      0.051570
     2.8065      0.053040
     2.8070      0.054530
     2.8075      0.055520
     2.8080      0.056940
     2.8085      0.058850
     2.8090      0.061280
     2.8095      0.063200
     2.8100      0.064400
     2.8105      0.065710
     2.8110      0.067120
     2.8115      0.068640
     2.8120      0.069440
     2.8125      0.070200
     2.8130      0.071120
     2.8135      0.072700
     2.8140      0.074550
     2.8145      0.076720
     2.8150      0.078750
     2.8155      0.080670
     2.8160      0.082380
     2.8165      0.084000
     2.8170      0.085520
     2.8175      0.086760
     2.8180      0.088240
     2.8185      0.089930
     2.8190      0.092360
     2.8195      0.094640
     2.8200      0.096760
     2.8205      0.098240
     2.8210      0.099890
     2.8215      0.101720
     2.8220      0.103980
     2.8225      0.106250
     2.8230      0.108500
     2.8235      0.110030
     2.8240      0.111200
     2.8245      0.111860
     2.8250      0.113410
     2.8255      0.115390
     2.8260      0.117960
     2.8265      0.120600
     2.8270      0.123300
     2.8275      0.126130
     2.8280      0.128060
     2.8285      0.129460
     2.8290      0.130450
     2.8295      0.132190
     2.8300      0.134520
     2.8305      0.137080
     2.8310      0.139370
     2.8315      0.141370
     2.8320      0.143100
     2.8325      0.144950
     2.8330      0.147020
     2.8335      0.149570
     2.8340      0.152200
     2.8345      0.154790
     2.8350      0.157330
     2.8355      0.159760
     2.8360      0.161790
     2.8365      0.163500
     2.8370      0.165120
     2.8375      0.167580
     2.8380      0.170260
     2.8385      0.173140
     2.8390      0.175310
     2.8395      0.177400
     2.8400      0.179410
     2.8405      0.181480
     2.8410      0.183670
     2.8415      0.186090
     2.8420      0.188680
     2.8425      0.191210
     2.8430      0.193220
     2.8435      0.195240
     2.8440      0.197300
     2.8445      0.199730
     2.8450      0.201970
     2.8455      0.204020
     2.8460      0.206240
     2.8465      0.208640
     2.8470      0.211320
     2.8475      0.213750
     2.8480      0.216130
     2.8485      0.218480
     2.8490      0.220760
     2.8495      0.222950
     2.8500      0.224810
     2.8505      0.226970
     2.8510      0.229370
     2.8515      0.232290
     2.8520      0.234930
     2.8525      0.237190
     2.8530      0.239480
     2.8535      0.242000
     2.8540      0.245090
     2.8545      0.247790
     2.8550      0.250330
     2.8555      0.252840
     2.8560      0.255970
     2.8565      0.259550
     2.8570      0.262550
     2.8575      0.265300
     2.8580      0.267720
     2.8585      0.270760
     2.8590      0.273940
     2.8595      0.277220
     2.8600      0.279960
     2.8605      0.282480
     2.8610      0.285110
     2.8615      0.288360
     2.8620      0.292100
     2.8625      0.295810
     2.8630      0.299340
     2.8635      0.302620
     2.8640      0.306150
     2.8645      0.309650
     2.8650      0.312920
     2.8655      0.315680
     2.8660      0.318190
     2.8665      0.321170
     2.8670      0.324790
     2.8675      0.329140
     2.8680      0.333080
     2.8685      0.336800
     2.8690      0.340110
     2.8695      0.343600
     2.8700      0.347040
     2.8705      0.349580
     2.8710      0.352460
     2.8715      0.355630
     2.8720      0.360480
     2.8725      0.365440
     2.8730      0.370410
     2.8735      0.375170
     2.8740      0.379670
     2.8745      0.383260
     2.8750      0.386830
     2.8755      0.390380
     2.8760      0.395190
     2.8765      0.399770
     2.8770      0.403970
     2.8775      0.408220
     2.8780      0.412640
     2.8785      0.417680
     2.8790      0.422410
     2.8795      0.426920
     2.8800      0.431090
     2.8805      0.435330
     2.8810      0.439650
     2.8815      0.444620
     2.8820      0.449710
     2.8825      0.454640
     2.8830      0.458950
     2.8835      0.462820
     2.8840      0.467700
     2.8845      0.473020
     2.8850      0.479020
     2.8855      0.484710
     2.8860      0.490230
     2.8865      0.495320
     2.8870      0.500150
     2.8875      0.504780
     2.8880      0.508950
     2.8885      0.513180
     2.8890      0.517530
     2.8895      0.522830
     2.8900      0.528520
     2.8905      0.534630
     2.8910      0.540380
     2.8915      0.545790
     2.8920      0.550840
     2.8925      0.555670
     2.8930      0.560050
     2.8935      0.564190
     2.8940      0.568250
     2.8945      0.572800
     2.8950      0.577380
     2.8955      0.582000
     2.8960      0.586300
     2.8965      0.590580
     2.8970      0.595010
     2.8975      0.599690
     2.8980      0.604560
     2.8985      0.609360
     2.8990      0.614080
     2.8995      0.618650
     2.9000      0.622770
     2.9005      0.626690
     2.9010      0.630400
     2.9015      0.634420
     2.9020      0.638760
     2.9025      0.642540
     2.9030      0.645910
     2.9035      0.648350
     2.9040      0.650620
     2.9045      0.652800
     2.9050      0.655530
     2.9055      0.658550
     2.9060      0.662080
     2.9065      0.664810
     2.9070      0.667130
     2.9075      0.668380
     2.9080      0.669810
     2.9085      0.671430
     2.9090      0.672780
     2.9095      0.674070
     2.9100      0.675250
     2.9105      0.676510
     2.9110      0.677840
     2.9115      0.678940
     2.9120      0.680010
     2.9125      0.681050
     2.9130      0.681570
     2.9135      0.681830
     2.9140      0.681730
     2.9145      0.681650
     2.9150      0.681600
     2.9155      0.681100
     2.9160      0.680480
     2.9165      0.680010
     2.9170      0.679770
     2.9175      0.679790
     2.9180      0.679660
     2.9185      0.679420
     2.9190      0.678920
     2.9195      0.678200
     2.9200      0.677310
     2.9205      0.676260
     2.9210      0.675120
     2.9215      0.673740
     2.9220      0.671980
     2.9225      0.669980
     2.9230      0.668280
     2.9235      0.666820
     2.9240      0.665860
     2.9245      0.665040
     2.9250      0.664310
     2.9255      0.664040
     2.9260      0.663560
     2.9265      0.662760
     2.9270      0.660910
     2.9275      0.658640
     2.9280      0.656150
     2.9285      0.653790
     2.9290      0.651610
     2.9295      0.650100
     2.9300      0.648850
     2.9305      0.647940
     2.9310      0.646450
     2.9315      0.644270
     2.9320      0.642090
     2.9325      0.640130
     2.9330      0.639580
     2.9335      0.639460
     2.9340      0.639810
     2.9345      0.639520
     2.9350      0.638860
     2.9355      0.636930
     2.9360      0.634770
     2.9365      0.632390
     2.9370      0.630780
     2.9375      0.629500
     2.9380      0.629080
     2.9385      0.628500
     2.9390      0.627770
     2.9395      0.627050
     2.9400      0.626380
     2.9405      0.625990
     2.9410      0.625330
     2.9415      0.624390
     2.9420      0.624200
     2.9425      0.624210
     2.9430      0.624470
     2.9435      0.624180
     2.9440      0.623320
     2.9445      0.622600
     2.9450      0.621950
     2.9455      0.621550
     2.9460      0.621310
     2.9465      0.621250
     2.9470      0.621300
     2.9475      0.621430
     2.9480      0.621830
     2.9485      0.622670
     2.9490      0.624030
     2.9495      0.625100
     2.9500      0.626040
     2.9505      0.626600
     2.9510      0.627090
     2.9515      0.627500
     2.9520      0.627660
     2.9525      0.627770
     2.9530      0.628320
     2.9535      0.628950
     2.9540      0.629710
     2.9545      0.630770
     2.9550      0.631970
     2.9555      0.633860
     2.9560      0.635770
     2.9565      0.637710
     2.9570      0.639430
     2.9575      0.641040
     2.9580      0.641870
     2.9585      0.642640
     2.9590      0.643360
     2.9595      0.644730
     2.9600      0.646590
     2.9605      0.649130
     2.9610      0.651720
     2.9615      0.654130
     2.9620      0.656160
     2.9625      0.657810
     2.9630      0.658960
     2.9635      0.660050
     2.9640      0.661560
     2.9645      0.663460
     2.9650      0.665870
     2.9655      0.668250
     2.9660      0.670600
     2.9665      0.672650
     2.9670      0.674900
     2.9675      0.677560
     2.9680      0.680410
     2.9685      0.683350
     2.9690      0.685720
     2.9695      0.688100
     2.9700      0.690640
     2.9705      0.693170
     2.9710      0.695700
     2.9715      0.697480
     2.9720      0.699140
     2.9725      0.700920
     2.9730      0.702830
     2.9735      0.704890
     2.9740      0.706910
     2.9745      0.708910
     2.9750      0.711050
     2.9755      0.713300
     2.9760      0.715800
     2.9765      0.718840
     2.9770      0.722250
     2.9775      0.724720
     2.9780      0.726750
     2.9785      0.727310
     2.9790      0.728400
     2.9795      0.730080
     2.9800      0.732220
     2.9805      0.734470
     2.9810      0.735780
     2.9815      0.737070
     2.9820      0.738320
     2.9825      0.739400
     2.9830      0.740380
     2.9835      0.741360
     2.9840      0.742410
     2.9845      0.743710
     2.9850      0.744600
     2.9855      0.745020
     2.9860      0.745230
     2.9865      0.745390
     2.9870      0.745630
     2.9875      0.745660
     2.9880      0.745230
     2.9885      0.744950
     2.9890      0.744790
     2.9895      0.745500
     2.9900      0.746360
     2.9905      0.747290
     2.9910      0.747600
     2.9915      0.747040
     2.9920      0.745380
     2.9925      0.743220
     2.9930      0.741200
     2.9935      0.739320
     2.9940      0.737900
     2.9945      0.736350
     2.9950      0.734660
     2.9955      0.733150
     2.9960      0.731710
     2.9965      0.730370
     2.9970      0.728660
     2.9975      0.726120
     2.9980      0.723580
     2.9985      0.721020
     2.9990      0.719170
     2.9995      0.717410
     3.0000      0.715360
     3.0005      0.712950
     3.0010      0.709950
     3.0015      0.706340
     3.0020      0.702390
     3.0025      0.699100
     3.0030      0.696070
     3.0035      0.693950
     3.0040      0.691660
     3.0045      0.689130
     3.0050      0.686280
     3.0055      0.683290
     3.0060      0.679950
     3.0065      0.676600
     3.0070      0.673290
     3.0075      0.670040
     3.0080      0.666850
     3.0085      0.663370
     3.0090      0.659760
     3.0095      0.656450
     3.0100      0.653110
     3.0105      0.649650
     3.0110      0.645610
     3.0115      0.640910
     3.0120      0.636090
     3.0125      0.631230
     3.0130      0.627390
     3.0135      0.623760
     3.0140      0.620780
     3.0145      0.617620
     3.0150      0.614270
     3.0155      0.610420
     3.0160      0.606370
     3.0165      0.602650
     3.0170      0.599000
     3.0175      0.595550
     3.0180      0.592140
     3.0185      0.588810
     3.0190      0.585630
     3.0195      0.582530
     3.0200      0.578750
     3.0205      0.574910
     3.0210      0.571030
     3.0215      0.567430
     3.0220      0.564230
     3.0225      0.561130
     3.0230      0.558080
     3.0235      0.555400
     3.0240      0.552770
     3.0245      0.550180
     3.0250      0.547380
     3.0255      0.544180
     3.0260      0.540980
     3.0265      0.537780
     3.0270      0.535060
     3.0275      0.532440
     3.0280      0.529940
     3.0285      0.527360
     3.0290      0.524590
     3.0295      0.521740
     3.0300      0.518800
     3.0305      0.516020
     3.0310      0.513300
     3.0315      0.511150
     3.0320      0.508970
     3.0325      0.506570
     3.0330      0.504240
     3.0335      0.502000
     3.0340      0.500380
     3.0345      0.499080
     3.0350      0.497340
     3.0355      0.495520
     3.0360      0.493450
     3.0365      0.491520
     3.0370      0.489870
     3.0375      0.487970
     3.0380      0.485880
     3.0385      0.483870
     3.0390      0.481890
     3.0395      0.480260
     3.0400      0.478610
     3.0405      0.476930
     3.0410      0.475670
     3.0415      0.475000
     3.0420      0.474410
     3.0425      0.473860
     3.0430      0.472030
     3.0435      0.470020
     3.0440      0.468340
     3.0445      0.466970
     3.0450      0.466370
     3.0455      0.465680
     3.0460      0.464910
     3.0465      0.464210
     3.0470      0.463540
     3.0475      0.462840
     3.0480      0.462130
     3.0485      0.461270
     3.0490      0.460550
     3.0495      0.460080
     3.0500      0.459640
     3.0505      0.459220
     3.0510      0.458700
     3.0515      0.458140
     3.0520      0.457870
     3.0525      0.457700
     3.0530      0.457960
     3.0535      0.458090
     3.0540      0.457980
     3.0545      0.457310
     3.0550      0.456210
     3.0555      0.455490
     3.0560      0.454900
     3.0565      0.455440
     3.0570      0.456020
     3.0575      0.456570
     3.0580      0.456930
     3.0585      0.456920
     3.0590      0.456780
     3.0595      0.456560
     3.0600      0.456690
     3.0605      0.456950
     3.0610      0.458020
     3.0615      0.459210
     3.0620      0.460810
     3.0625      0.462230
     3.0630      0.463260
     3.0635      0.463800
     3.0640      0.463880
     3.0645      0.464160
     3.0650      0.464530
     3.0655      0.465210
     3.0660      0.465890
     3.0665      0.466090
     3.0670      0.466320
     3.0675      0.466650
     3.0680      0.467120
     3.0685      0.467740
     3.0690      0.468780
     3.0695      0.470070
     3.0700      0.472250
     3.0705      0.474630
     3.0710      0.476230
     3.0715      0.477640
     3.0720      0.478240
     3.0725      0.479170
     3.0730      0.480710
     3.0735      0.482610
     3.0740      0.484820
     3.0745      0.486400
     3.0750      0.487730
     3.0755      0.488790
     3.0760      0.489900
     3.0765      0.492300
     3.0770      0.494650
     3.0775      0.496850
     3.0780      0.498490
     3.0785      0.499330
     3.0790      0.500630
     3.0795      0.502270
     3.0800      0.503880
     3.0805      0.505470
     3.0810      0.506230
     3.0815      0.507020
     3.0820      0.508650
     3.0825      0.510530
     3.0830      0.513050
     3.0835      0.515730
     3.0840      0.518600
     3.0845      0.521220
     3.0850      0.523680
     3.0855      0.525670
     3.0860      0.527520
     3.0865      0.529550
     3.0870      0.531640
     3.0875      0.534220
     3.0880      0.537120
     3.0885      0.540930
     3.0890      0.544360
     3.0895      0.547240
     3.0900      0.549050
     3.0905      0.550060
     3.0910      0.551820
     3.0915      0.553850
     3.0920      0.556420
     3.0925      0.559060
     3.0930      0.561570
     3.0935      0.564190
     3.0940      0.567200
     3.0945      0.570280
     3.0950      0.573460
     3.0955      0.576610
     3.0960      0.579730
     3.0965      0.582110
     3.0970      0.584090
     3.0975      0.585930
     3.0980      0.587740
     3.0985      0.591260
     3.0990      0.594930
     3.0995      0.599210
     3.1000      0.603350
     3.1005      0.607090
     3.1010      0.610610
     3.1015      0.613790
     3.1020      0.616800
     3.1025      0.619660
     3.1030      0.622440
     3.1035      0.625190
     3.1040      0.627700
     3.1045      0.630170
     3.1050      0.632340
     3.1055      0.634590
     3.1060      0.637540
     3.1065      0.640720
     3.1070      0.644580
     3.1075      0.648140
     3.1080      0.651230
     3.1085      0.653990
     3.1090      0.656460
     3.1095      0.659020
     3.1100      0.661630
     3.1105      0.664050
     3.1110      0.666420
     3.1115      0.668980
     3.1120      0.671570
     3.1125      0.674410
     3.1130      0.677250
     3.1135      0.680140
     3.1140      0.683000
     3.1145      0.685820
     3.1150      0.688390
     3.1155      0.690680
     3.1160      0.693010
     3.1165      0.695380
     3.1170      0.698260
     3.1175      0.701360
     3.1180      0.704520
     3.1185      0.707690
     3.1190      0.710100
     3.1195      0.712390
     3.1200      0.713630
     3.1205      0.714780
     3.1210      0.715660
     3.1215      0.716690
     3.1220      0.718050
     3.1225      0.719340
     3.1230      0.720530
     3.1235      0.721760
     3.1240      0.723020
     3.1245      0.724640
     3.1250      0.726420
     3.1255      0.727610
     3.1260      0.728660
     3.1265      0.729270
     3.1270      0.729840
     3.1275      0.730660
     3.1280      0.731380
     3.1285      0.731500
     3.1290      0.731490
     3.1295      0.731090
     3.1300      0.730610
     3.1305      0.729970
     3.1310      0.729250
     3.1315      0.728440
     3.1320      0.728290
     3.1325      0.728610
     3.1330      0.728970
     3.1335      0.729330
     3.1340      0.728090
     3.1345      0.726440
     3.1350      0.724480
     3.1355      0.722500
     3.1360      0.721170
     3.1365      0.719830
     3.1370      0.718360
     3.1375      0.716900
     3.1380      0.715490
     3.1385      0.713890
     3.1390      0.711870
     3.1395      0.709980
     3.1400      0.708260
     3.1405      0.706930
     3.1410      0.705980
     3.1415      0.704020
     3.1420      0.701420
     3.1425      0.698410
     3.1430      0.695230
     3.1435      0.692220
     3.1440      0.689260
     3.1445      0.685220
     3.1450      0.681060
     3.1455      0.677440
     3.1460      0.673870
     3.1465      0.670780
     3.1470      0.667540
     3.1475      0.663530
     3.1480      0.659550
     3.1485      0.655660
     3.1490      0.651780
     3.1495      0.647910
     3.1500      0.643870
     3.1505      0.639600
     3.1510      0.635590
     3.1515      0.631820
     3.1520      0.628390
     3.1525      0.625180
     3.1530      0.621690
     3.1535      0.618080
     3.1540      0.613560
     3.1545      0.608770
     3.1550      0.603870
     3.1555      0.598940
     3.1560      0.594720
     3.1565      0.590550
     3.1570      0.586440
     3.1575      0.582390
     3.1580      0.578890
     3.1585      0.575410
     3.1590      0.572080
     3.1595      0.568440
     3.1600      0.563870
     3.1605      0.559300
     3.1610      0.554720
     3.1615      0.550430
     3.1620      0.546610
     3.1625      0.542850
     3.1630      0.539160
     3.1635      0.535240
     3.1640      0.531110
     3.1645      0.526790
     3.1650      0.522350
     3.1655      0.518050
     3.1660      0.513810
     3.1665      0.509550
     3.1670      0.505290
     3.1675      0.501400
     3.1680      0.497590
     3.1685      0.494150
     3.1690      0.490770
     3.1695      0.487260
     3.1700      0.483740
     3.1705      0.479960
     3.1710      0.476170
     3.1715      0.472320
     3.1720      0.468630
     3.1725      0.466150
     3.1730      0.463600
     3.1735      0.460760
     3.1740      0.457610
     3.1745      0.453430
     3.1750      0.449720
     3.1755      0.447150
     3.1760      0.444630
     3.1765      0.442220
     3.1770      0.439300
     3.1775      0.435620
     3.1780      0.432130
     3.1785      0.428890
     3.1790      0.425580
     3.1795      0.422220
     3.1800      0.418950
     3.1805      0.415740
     3.1810      0.413130
     3.1815      0.410910
     3.1820      0.408980
     3.1825      0.407220
     3.1830      0.405300
     3.1835      0.403320
     3.1840      0.400440
     3.1845      0.397260
     3.1850      0.394270
     3.1855      0.391330
     3.1860      0.389570
     3.1865      0.388040
     3.1870      0.386310
     3.1875      0.384540
     3.1880      0.382640
     3.1885      0.380710
     3.1890      0.379060
     3.1895      0.377410
     3.1900      0.375530
     3.1905      0.373670
     3.1910      0.372410
     3.1915      0.371160
     3.1920      0.370080
     3.1925      0.368830
     3.1930      0.366000
     3.1935      0.363150
     3.1940      0.360200
     3.1945      0.357600
     3.1950      0.356760
     3.1955      0.356050
     3.1960      0.355860
     3.1965      0.355590
     3.1970      0.355080
     3.1975      0.354360
     3.1980      0.353010
     3.1985      0.351520
     3.1990      0.349670
     3.1995      0.348180
     3.2000      0.347490
     3.2005      0.346800
     3.2010      0.346100
     3.2015      0.345280
     3.2020      0.344230
     3.2025      0.343370
     3.2030      0.342840
     3.2035      0.342260
     3.2040      0.341620
     3.2045      0.341000
     3.2050      0.340400
     3.2055      0.339950
     3.2060      0.339710
     3.2065      0.339570
     3.2070      0.339550
     3.2075      0.339300
     3.2080      0.338780
     3.2085      0.338210
     3.2090      0.337590
     3.2095      0.337180
     3.2100      0.336960
     3.2105      0.336630
     3.2110      0.336190
     3.2115      0.336100
     3.2120      0.336330
     3.2125      0.336530
     3.2130      0.336720
     3.2135      0.336660
     3.2140      0.336380
     3.2145      0.336580
     3.2150      0.337170
     3.2155      0.337800
     3.2160      0.338470
     3.2165      0.339130
     3.2170      0.339800
     3.2175      0.340490
     3.2180      0.341190
     3.2185      0.341430
     3.2190      0.341330
     3.2195      0.341220
     3.2200      0.341100
     3.2205      0.341470
     3.2210      0.342190
     3.2215      0.343290
     3.2220      0.344650
     3.2225      0.345750
     3.2230      0.346680
     3.2235      0.347020
     3.2240      0.346950
     3.2245      0.346990
     3.2250      0.347120
     3.2255      0.347980
     3.2260      0.349390
     3.2265      0.350860
     3.2270      0.352380
     3.2275      0.353510
     3.2280      0.354330
     3.2285      0.355270
     3.2290      0.356320
     3.2295      0.357650
     3.2300      0.359210
     3.2305      0.361210
     3.2310      0.363620
     3.2315      0.366030
     3.2320      0.368450
     3.2325      0.370110
     3.2330      0.370970
     3.2335      0.371920
     3.2340      0.372980
     3.2345      0.374570
     3.2350      0.376810
     3.2355      0.378910
     3.2360      0.380830
     3.2365      0.382610
     3.2370      0.384190
     3.2375      0.385870
     3.2380      0.387710
     3.2385      0.389710
     3.2390      0.392000
     3.2395      0.394200
     3.2400      0.396250
     3.2405      0.398250
     3.2410      0.400150
     3.2415      0.402310
     3.2420      0.405110
     3.2425      0.407860
     3.2430      0.410450
     3.2435      0.412950
     3.2440      0.415130
     3.2445      0.417440
     3.2450      0.420280
     3.2455      0.423210
     3.2460      0.426580
     3.2465      0.429950
     3.2470      0.433270
     3.2475      0.436460
     3.2480      0.438720
     3.2485      0.440960
     3.2490      0.443040
     3.2495      0.445160
     3.2500      0.448060
     3.2505      0.450970
     3.2510      0.454010
     3.2515      0.457050
     3.2520      0.460580
     3.2525      0.464120
     3.2530      0.467760
     3.2535      0.471410
     3.2540      0.474470
     3.2545      0.477460
     3.2550      0.481360
     3.2555      0.485420
     3.2560      0.490270
     3.2565      0.495320
     3.2570      0.498920
     3.2575      0.502070
     3.2580      0.504380
     3.2585      0.506350
     3.2590      0.509290
     3.2595      0.512710
     3.2600      0.516460
     3.2605      0.520410
     3.2610      0.523970
     3.2615      0.527210
     3.2620      0.530800
     3.2625      0.534700
     3.2630      0.538930
     3.2635      0.543550
     3.2640      0.547770
     3.2645      0.551430
     3.2650      0.555150
     3.2655      0.558990
     3.2660      0.563010
     3.2665      0.567470
     3.2670      0.571710
     3.2675      0.575270
     3.2680      0.578880
     3.2685      0.582730
     3.2690      0.586600
     3.2695      0.590630
     3.2700      0.594630
     3.2705      0.598330
     3.2710      0.602020
     3.2715      0.606130
     3.2720      0.610250
     3.2725      0.614000
     3.2730      0.617730
     3.2735      0.621790
     3.2740      0.625900
     3.2745      0.630610
     3.2750      0.635480
     3.2755      0.639930
     3.2760      0.644230
     3.2765      0.648190
     3.2770      0.651970
     3.2775      0.655760
     3.2780      0.659550
     3.2785      0.663210
     3.2790      0.666750
     3.2795      0.669950
     3.2800      0.672730
     3.2805      0.675550
     3.2810      0.678420
     3.2815      0.681490
     3.2820      0.685030
     3.2825      0.688620
     3.2830      0.692400
     3.2835      0.696060
     3.2840      0.698900
     3.2845      0.701680
     3.2850      0.703390
     3.2855      0.705090
     3.2860      0.707580
     3.2865      0.710090
     3.2870      0.712660
     3.2875      0.715240
     3.2880      0.717880
     3.2885      0.720550
     3.2890      0.723760
     3.2895      0.727180
     3.2900      0.729320
     3.2905      0.730710
     3.2910      0.731640
     3.2915      0.732210
     3.2920      0.733490
     3.2925      0.735630
     3.2930      0.737820
     3.2935      0.740070
     3.2940      0.742050
     3.2945      0.743340
     3.2950      0.744460
     3.2955      0.744840
     3.2960      0.745230
     3.2965      0.745700
     3.2970      0.746160
     3.2975      0.746280
     3.2980      0.746400
     3.2985      0.745620
     3.2990      0.744740
     3.2995      0.744430
     3.3000      0.744270
     3.3005      0.744700
     3.3010      0.745400
     3.3015      0.745640
     3.3020      0.745570
     3.3025      0.744930
     3.3030      0.743670
     3.3035      0.742240
     3.3040      0.740540
     3.3045      0.738850
     3.3050      0.737230
     3.3055      0.735640
     3.3060      0.734130
     3.3065      0.732650
     3.3070      0.731530
     3.3075      0.730420
     3.3080      0.729270
     3.3085      0.728120
     3.3090      0.726300
     3.3095      0.724350
     3.3100      0.721870
     3.3105      0.719200
     3.3110      0.716150
     3.3115      0.712850
     3.3120      0.709720
     3.3125      0.706750
     3.3130      0.704260
     3.3135      0.702510
     3.3140      0.700600
     3.3145      0.698230
     3.3150      0.695650
     3.3155      0.691940
     3.3160      0.688260
     3.3165      0.685330
     3.3170      0.682410
     3.3175      0.679890
     3.3180      0.677410
     3.3185      0.674120
     3.3190      0.670620
     3.3195      0.666820
     3.3200      0.662870
     3.3205      0.659270
     3.3210      0.655960
     3.3215      0.653110
     3.3220      0.650900
     3.3225      0.648610
     3.3230      0.646130
     3.3235      0.643470
     3.3240      0.639840
     3.3245      0.636210
     3.3250      0.632590
     3.3255      0.628960
     3.3260      0.625620
     3.3265      0.622310
     3.3270      0.619020
     3.3275      0.615750
     3.3280      0.612310
     3.3285      0.608770
     3.3290      0.605010
     3.3295      0.601010
     3.3300      0.596990
     3.3305      0.592890
     3.3310      0.588800
     3.3315      0.584710
     3.3320      0.580670
     3.3325      0.577250
     3.3330      0.573820
     3.3335      0.571380
     3.3340      0.569030
     3.3345      0.566230
     3.3350      0.563300
     3.3355      0.559540
     3.3360      0.555300
     3.3365      0.551430
     3.3370      0.547930
     3.3375      0.544810
     3.3380      0.542420
     3.3385      0.539910
     3.3390      0.536950
     3.3395      0.533950
     3.3400      0.530320
     3.3405      0.526680
     3.3410      0.522840
     3.3415      0.518980
     3.3420      0.515530
     3.3425      0.512230
     3.3430      0.509400
     3.3435      0.506910
     3.3440      0.504250
     3.3445      0.501340
     3.3450      0.498320
     3.3455      0.494960
     3.3460      0.491630
     3.3465      0.488550
     3.3470      0.485460
     3.3475      0.482620
     3.3480      0.479790
     3.3485      0.476570
     3.3490      0.473240
     3.3495      0.469790
     3.3500      0.466270
     3.3505      0.463130
     3.3510      0.460430
     3.3515      0.457620
     3.3520      0.454560
     3.3525      0.451470
     3.3530      0.448150
     3.3535      0.444830
     3.3540      0.442590
     3.3545      0.440400
     3.3550      0.438870
     3.3555      0.437510
     3.3560      0.436210
     3.3565      0.434950
     3.3570      0.432970
     3.3575      0.430090
     3.3580      0.426920
     3.3585      0.422960
     3.3590      0.419140
     3.3595      0.416560
     3.3600      0.413980
     3.3605      0.411740
     3.3610      0.409540
     3.3615      0.407210
     3.3620      0.404830
     3.3625      0.402930
     3.3630      0.401400
     3.3635      0.399950
     3.3640      0.398630
     3.3645      0.397330
     3.3650      0.396110
     3.3655      0.394870
     3.3660      0.392960
     3.3665      0.391050
     3.3670      0.388200
     3.3675      0.385160
     3.3680      0.382660
     3.3685      0.380470
     3.3690      0.378410
     3.3695      0.376500
     3.3700      0.374550
     3.3705      0.372480
     3.3710      0.370460
     3.3715      0.369180
     3.3720      0.367900
     3.3725      0.365890
     3.3730      0.363770
     3.3735      0.361840
     3.3740      0.359990
     3.3745      0.358720
     3.3750      0.358050
     3.3755      0.356940
     3.3760      0.354830
     3.3765      0.352720
     3.3770      0.350650
     3.3775      0.348580
     3.3780      0.347880
     3.3785      0.347330
     3.3790      0.346370
     3.3795      0.345220
     3.3800      0.343900
     3.3805      0.342400
     3.3810      0.341200
     3.3815      0.340740
     3.3820      0.340290
     3.3825      0.339950
     3.3830      0.339620
     3.3835      0.338220
     3.3840      0.336680
     3.3845      0.334890
     3.3850      0.332980
     3.3855      0.331360
     3.3860      0.330060
     3.3865      0.328830
     3.3870      0.327810
     3.3875      0.326810
     3.3880      0.326160
     3.3885      0.325510
     3.3890      0.324930
     3.3895      0.324350
     3.3900      0.323260
     3.3905      0.321840
     3.3910      0.320240
     3.3915      0.318350
     3.3920      0.316660
     3.3925      0.315960
     3.3930      0.315260
     3.3935      0.315650
     3.3940      0.316080
     3.3945      0.315850
     3.3950      0.315380
     3.3955      0.314540
     3.3960      0.313360
     3.3965      0.312480
     3.3970      0.312360
     3.3975      0.312290
     3.3980      0.312950
     3.3985      0.313610
     3.3990      0.313450
     3.3995      0.313120
     3.4000      0.312170
     3.4005      0.310830
     3.4010      0.309680
     3.4015      0.308880
     3.4020      0.308130
     3.4025      0.307680
     3.4030      0.307230
     3.4035      0.306940
     3.4040      0.306660
     3.4045      0.306780
     3.4050      0.307110
     3.4055      0.307310
     3.4060      0.307360
     3.4065      0.307340
     3.4070      0.307070
     3.4075      0.306790
     3.4080      0.307330
     3.4085      0.307900
     3.4090      0.308930
     3.4095      0.310130
     3.4100      0.310680
     3.4105      0.310550
     3.4110      0.310190
     3.4115      0.309140
     3.4120      0.308090
     3.4125      0.307890
     3.4130      0.307690
     3.4135      0.307600
     3.4140      0.307540
     3.4145      0.307650
     3.4150      0.307940
     3.4155      0.308350
     3.4160      0.309120
     3.4165      0.309900
     3.4170      0.309880
     3.4175      0.309870
     3.4180      0.309950
     3.4185      0.310070
     3.4190      0.310740
     3.4195      0.311970
     3.4200      0.313110
     3.4205      0.313990
     3.4210      0.314870
     3.4215      0.314640
     3.4220      0.314390
     3.4225      0.314450
     3.4230      0.314630
     3.4235      0.315190
     3.4240      0.316200
     3.4245      0.317260
     3.4250      0.318500
     3.4255      0.319740
     3.4260      0.321030
     3.4265      0.322330
     3.4270      0.323320
     3.4275      0.324170
     3.4280      0.325080
     3.4285      0.326090
     3.4290      0.327060
     3.4295      0.327810
     3.4300      0.328560
     3.4305      0.328980
     3.4310      0.329340
     3.4315      0.330260
     3.4320      0.331540
     3.4325      0.332690
     3.4330      0.333600
     3.4335      0.334480
     3.4340      0.335080
     3.4345      0.335670
     3.4350      0.337070
     3.4355      0.338690
     3.4360      0.340140
     3.4365      0.341420
     3.4370      0.342660
     3.4375      0.343730
     3.4380      0.344790
     3.4385      0.346500
     3.4390      0.348240
     3.4395      0.349450
     3.4400      0.350390
     3.4405      0.351210
     3.4410      0.351830
     3.4415      0.352600
     3.4420      0.354700
     3.4425      0.356810
     3.4430      0.358650
     3.4435      0.360440
     3.4440      0.361720
     3.4445      0.362560
     3.4450      0.363670
     3.4455      0.365650
     3.4460      0.367620
     3.4465      0.370090
     3.4470      0.372590
     3.4475      0.375240
     3.4480      0.377950
     3.4485      0.380760
     3.4490      0.383710
     3.4495      0.386560
     3.4500      0.388220
     3.4505      0.389890
     3.4510      0.390940
     3.4515      0.391820
     3.4520      0.392940
     3.4525      0.394320
     3.4530      0.395890
     3.4535      0.398350
     3.4540      0.400800
     3.4545      0.403840
     3.4550      0.406950
     3.4555      0.409640
     3.4560      0.412020
     3.4565      0.414280
     3.4570      0.416200
     3.4575      0.418130
     3.4580      0.419990
     3.4585      0.421840
     3.4590      0.423690
     3.4595      0.425520
     3.4600      0.427560
     3.4605      0.429980
     3.4610      0.432400
     3.4615      0.434790
     3.4620      0.437180
     3.4625      0.438990
     3.4630      0.440590
     3.4635      0.442480
     3.4640      0.444750
     3.4645      0.447110
     3.4650      0.450170
     3.4655      0.453230
     3.4660      0.455160
     3.4665      0.456800
     3.4670      0.458730
     3.4675      0.460960
     3.4680      0.463380
     3.4685      0.466840
     3.4690      0.470300
     3.4695      0.471940
     3.4700      0.473240
     3.4705      0.474900
     3.4710      0.476900
     3.4715      0.479330
     3.4720      0.483540
     3.4725      0.487740
     3.4730      0.491120
     3.4735      0.494380
     3.4740      0.497330
     3.4745      0.500000
     3.4750      0.502590
     3.4755      0.504880
     3.4760      0.507170
     3.4765      0.509520
     3.4770      0.511880
     3.4775      0.514490
     3.4780      0.517320
     3.4785      0.519980
     3.4790      0.522040
     3.4795      0.524100
     3.4800      0.526160
     3.4805      0.528210
     3.4810      0.530420
     3.4815      0.532750
     3.4820      0.535220
     3.4825      0.538230
     3.4830      0.541240
     3.4835      0.544610
     3.4840      0.548030
     3.4845      0.550560
     3.4850      0.552290
     3.4855      0.554170
     3.4860      0.556660
     3.4865      0.559140
     3.4870      0.563150
     3.4875      0.567430
     3.4880      0.570890
     3.4885      0.573540
     3.4890      0.576070
     3.4895      0.577880
     3.4900      0.579690
     3.4905      0.581800
     3.4910      0.583980
     3.4915      0.585980
     3.4920      0.587750
     3.4925      0.589620
     3.4930      0.592290
     3.4935      0.594950
     3.4940      0.598520
     3.4945      0.602380
     3.4950      0.605870
     3.4955      0.608800
     3.4960      0.611660
     3.4965      0.612620
     3.4970      0.613570
     3.4975      0.614680
     3.4980      0.615860
     3.4985      0.617400
     3.4990      0.619700
     3.4995      0.622000
     3.5000      0.623910
     3.5005      0.625810
     3.5010      0.627370
     3.5015      0.628700
     3.5020      0.629920
     3.5025      0.630820
     3.5030      0.631720
     3.5035      0.633110
     3.5040      0.634580
     3.5045      0.636450
     3.5050      0.638730
     3.5055      0.641020
     3.5060      0.643420
     3.5065      0.645820
     3.5070      0.648210
     3.5075      0.650590
     3.5080      0.652320
     3.5085      0.653020
     3.5090      0.653720
     3.5095      0.654010
     3.5100      0.654310
     3.5105      0.655760
     3.5110      0.657890
     3.5115      0.660130
     3.5120      0.662690
     3.5125      0.665260
     3.5130      0.666690
     3.5135      0.667960
     3.5140      0.668490
     3.5145      0.668270
     3.5150      0.668140
     3.5155      0.668630
     3.5160      0.669120
     3.5165      0.670510
     3.5170      0.672230
     3.5175      0.674010
     3.5180      0.675880
     3.5185      0.677750
     3.5190      0.679810
     3.5195      0.681890
     3.5200      0.683190
     3.5205      0.683900
     3.5210      0.684370
     3.5215      0.683780
     3.5220      0.683190
     3.5225      0.683300
     3.5230      0.683610
     3.5235      0.684170
     3.5240      0.685100
     3.5245      0.686030
     3.5250      0.686090
     3.5255      0.686140
     3.5260      0.686180
     3.5265      0.686200
     3.5270      0.686490
     3.5275      0.687800
     3.5280      0.689110
     3.5285      0.689390
     3.5290      0.689410
     3.5295      0.689050
     3.5300      0.688110
     3.5305      0.687170
     3.5310      0.689120
     3.5315      0.691060
     3.5320      0.693810
     3.5325      0.697110
     3.5330      0.700180
     3.5335      0.702260
     3.5340      0.704350
     3.5345      0.705330
     3.5350      0.706010
     3.5355      0.706550
     3.5360      0.706860
     3.5365      0.707170
     3.5370      0.708130
     3.5375      0.709120
     3.5380      0.708930
     3.5385      0.707750
     3.5390      0.706420
     3.5395      0.704170
     3.5400      0.701910
     3.5405      0.702900
     3.5410      0.705210
     3.5415      0.708370
     3.5420      0.713580
     3.5425      0.718790
     3.5430      0.721600
     3.5435      0.724060
     3.5440      0.725200
     3.5445      0.724740
     3.5450      0.724290
     3.5455      0.724290
     3.5460      0.724300
     3.5465      0.725370
     3.5470      0.727140
     3.5475      0.728780
     3.5480      0.729830
     3.5485      0.730880
     3.5490      0.729550
     3.5495      0.727440
     3.5500      0.725400
     3.5505      0.723520
     3.5510      0.721650
     3.5515      0.723030
     3.5520      0.724820
     3.5525      0.727950
     3.5530      0.732680
     3.5535      0.737400
     3.5540      0.741540
     3.5545      0.745680
     3.5550      0.745870
     3.5555      0.743270
     3.5560      0.740370
     3.5565      0.735750
     3.5570      0.731130
     3.5575      0.730470
     3.5580      0.731450
     3.5585      0.732920
     3.5590      0.735780
     3.5595      0.738630
     3.5600      0.741250
     3.5605      0.743810
     3.5610      0.746140
     3.5615      0.748070
     3.5620      0.750000
     3.5625      0.751520
     3.5630      0.753010
     3.5635      0.753710
     3.5640      0.753580
     3.5645      0.753310
     3.5650      0.749080
     3.5655      0.744840
     3.5660      0.741770
     3.5665      0.739530
     3.5670      0.737730
     3.5675      0.738890
     3.5680      0.740040
     3.5685      0.740110
     3.5690      0.739660
     3.5695      0.739130
     3.5700      0.738330
     3.5705      0.737530
     3.5710      0.738490
     3.5715      0.740010
