# author : Oliver Czoske
# source : Ester Aranzana
# date_created : 2017-11-20
# date_modified : 2025-12-16
# status : Measured at 80 K
# wavelength_unit : um
# changes :
# - 2022-03-17 (KL) Updated to match Rics email
# - 2023-06-06 (RD) Modified profiles after discussion with Schott
# - 2025-12-16 (OC) Replaced with measured values
#
 wavelength  transmission
     0.9990      0.000150
     0.9995      0.000150
     1.0000      0.002590
     1.0005      0.000000
     1.0010      0.004740
     1.0015      0.001020
     1.0020      0.000260
     1.0025      0.003750
     1.0030      0.000360
     1.0035      0.001060
     1.0040      0.000680
     1.0045      0.000000
     1.0050      0.006000
     1.0055      0.000060
     1.0060      0.000990
     1.0065      0.000000
     1.0070      0.000000
     1.0075      0.003280
     1.0080      0.004810
     1.0085      0.000000
     1.0090      0.001510
     1.0095      0.000000
     1.0100      0.000000
     1.0105      0.001230
     1.0110      0.003980
     1.0115      0.000000
     1.0120      0.001070
     1.0125      0.005750
     1.0130      0.002230
     1.0135      0.000050
     1.0140      0.002790
     1.0145      0.001240
     1.0150      0.004600
     1.0155      0.000000
     1.0160      0.000870
     1.0165      0.000000
     1.0170      0.000720
     1.0175      0.002930
     1.0180      0.003060
     1.0185      0.001550
     1.0190      0.001500
     1.0195      0.000370
     1.0200      0.000000
     1.0205      0.000000
     1.0210      0.002840
     1.0215      0.001070
     1.0220      0.000000
     1.0225      0.001820
     1.0230      0.004820
     1.0235      0.000000
     1.0240      0.000000
     1.0245      0.002690
     1.0250      0.000000
     1.0255      0.007180
     1.0260      0.005450
     1.0265      0.000700
     1.0270      0.000000
     1.0275      0.000450
     1.0280      0.000000
     1.0285      0.000000
     1.0290      0.001600
     1.0295      0.001930
     1.0300      0.000000
     1.0305      0.002300
     1.0310      0.003950
     1.0315      0.003770
     1.0320      0.000000
     1.0325      0.007060
     1.0330      0.000000
     1.0335      0.000000
     1.0340      0.000000
     1.0345      0.000230
     1.0350      0.005330
     1.0355      0.002600
     1.0360      0.000000
     1.0365      0.001610
     1.0370      0.003090
     1.0375      0.001530
     1.0380      0.002930
     1.0385      0.000000
     1.0390      0.001470
     1.0395      0.004770
     1.0400      0.001690
     1.0405      0.000700
     1.0410      0.002960
     1.0415      0.000200
     1.0420      0.000630
     1.0425      0.002500
     1.0430      0.000000
     1.0435      0.000710
     1.0440      0.004460
     1.0445      0.001870
     1.0450      0.001580
     1.0455      0.000010
     1.0460      0.000000
     1.0465      0.002590
     1.0470      0.001730
     1.0475      0.000080
     1.0480      0.002380
     1.0485      0.000630
     1.0490      0.001290
     1.0495      0.002930
     1.0500      0.002640
     1.0505      0.001680
     1.0510      0.003030
     1.0515      0.000000
     1.0520      0.000030
     1.0525      0.001640
     1.0530      0.000400
     1.0535      0.002100
     1.0540      0.004740
     1.0545      0.002930
     1.0550      0.002480
     1.0555      0.004360
     1.0560      0.000000
     1.0565      0.000000
     1.0570      0.001910
     1.0575      0.000050
     1.0580      0.003350
     1.0585      0.000000
     1.0590      0.000000
     1.0595      0.001190
     1.0600      0.000000
     1.0605      0.001230
     1.0610      0.001010
     1.0615      0.001270
     1.0620      0.006060
     1.0625      0.000550
     1.0630      0.003360
     1.0635      0.001790
     1.0640      0.001570
     1.0645      0.001810
     1.0650      0.001360
     1.0655      0.000750
     1.0660      0.002870
     1.0665      0.000000
     1.0670      0.003910
     1.0675      0.001400
     1.0680      0.001860
     1.0685      0.000000
     1.0690      0.005650
     1.0695      0.005350
     1.0700      0.000820
     1.0705      0.000000
     1.0710      0.001000
     1.0715      0.001230
     1.0720      0.001470
     1.0725      0.001210
     1.0730      0.000930
     1.0735      0.000460
     1.0740      0.000100
     1.0745      0.000000
     1.0750      0.000000
     1.0755      0.000000
     1.0760      0.000110
     1.0765      0.002810
     1.0770      0.000570
     1.0775      0.002710
     1.0780      0.000000
     1.0785      0.000000
     1.0790      0.000000
     1.0795      0.000000
     1.0800      0.000000
     1.0805      0.002290
     1.0810      0.001740
     1.0815      0.003140
     1.0820      0.002020
     1.0825      0.000900
     1.0830      0.002120
     1.0835      0.001260
     1.0840      0.000000
     1.0845      0.002010
     1.0850      0.003290
     1.0855      0.005580
     1.0860      0.000040
     1.0865      0.000000
     1.0870      0.003290
     1.0875      0.002500
     1.0880      0.001380
     1.0885      0.000560
     1.0890      0.000830
     1.0895      0.003340
     1.0900      0.004330
     1.0905      0.000000
     1.0910      0.001270
     1.0915      0.002540
     1.0920      0.001790
     1.0925      0.000000
     1.0930      0.000000
     1.0935      0.001060
     1.0940      0.000430
     1.0945      0.005210
     1.0950      0.002440
     1.0955      0.000180
     1.0960      0.000000
     1.0965      0.000000
     1.0970      0.000060
     1.0975      0.000260
     1.0980      0.001260
     1.0985      0.002580
     1.0990      0.000000
     1.0995      0.002530
     1.1000      0.000930
     1.1005      0.000050
     1.1010      0.004130
     1.1015      0.000000
     1.1020      0.002830
     1.1025      0.000100
     1.1030      0.003820
     1.1035      0.000000
     1.1040      0.000000
     1.1045      0.000080
     1.1050      0.002660
     1.1055      0.003140
     1.1060      0.000000
     1.1065      0.000080
     1.1070      0.000260
     1.1075      0.000000
     1.1080      0.002810
     1.1085      0.000000
     1.1090      0.000000
     1.1095      0.000000
     1.1100      0.001350
     1.1105      0.002520
     1.1110      0.000760
     1.1115      0.000000
     1.1120      0.003980
     1.1125      0.000000
     1.1130      0.000190
     1.1135      0.000260
     1.1140      0.000230
     1.1145      0.000000
     1.1150      0.001680
     1.1155      0.001040
     1.1160      0.000000
     1.1165      0.000000
     1.1170      0.000000
     1.1175      0.002240
     1.1180      0.004700
     1.1185      0.000000
     1.1190      0.000000
     1.1195      0.000000
     1.1200      0.000000
     1.1205      0.003230
     1.1210      0.000000
     1.1215      0.000110
     1.1220      0.000930
     1.1225      0.003240
     1.1230      0.003710
     1.1235      0.000660
     1.1240      0.000710
     1.1245      0.001620
     1.1250      0.002100
     1.1255      0.000120
     1.1260      0.000390
     1.1265      0.000320
     1.1270      0.000180
     1.1275      0.000560
     1.1280      0.002250
     1.1285      0.000100
     1.1290      0.000000
     1.1295      0.000420
     1.1300      0.000730
     1.1305      0.003810
     1.1310      0.003820
     1.1315      0.000000
     1.1320      0.000050
     1.1325      0.002320
     1.1330      0.000000
     1.1335      0.000070
     1.1340      0.000080
     1.1345      0.000530
     1.1350      0.000050
     1.1355      0.001360
     1.1360      0.002730
     1.1365      0.000320
     1.1370      0.000000
     1.1375      0.000470
     1.1380      0.000900
     1.1385      0.000000
     1.1390      0.000050
     1.1395      0.000210
     1.1400      0.000000
     1.1405      0.000000
     1.1410      0.000380
     1.1415      0.000000
     1.1420      0.001490
     1.1425      0.000610
     1.1430      0.003520
     1.1435      0.000000
     1.1440      0.002180
     1.1445      0.001870
     1.1450      0.000350
     1.1455      0.005020
     1.1460      0.001770
     1.1465      0.003060
     1.1470      0.001450
     1.1475      0.000000
     1.1480      0.000000
     1.1485      0.000050
     1.1490      0.000000
     1.1495      0.000000
     1.1500      0.000000
     1.1505      0.000000
     1.1510      0.000000
     1.1515      0.001030
     1.1520      0.000000
     1.1525      0.000560
     1.1530      0.000010
     1.1535      0.002510
     1.1540      0.002860
     1.1545      0.003770
     1.1550      0.000000
     1.1555      0.000000
     1.1560      0.000220
     1.1565      0.003890
     1.1570      0.002850
     1.1575      0.002290
     1.1580      0.000320
     1.1585      0.004180
     1.1590      0.000250
     1.1595      0.003520
     1.1600      0.001390
     1.1605      0.005360
     1.1610      0.005070
     1.1615      0.006910
     1.1620      0.006340
     1.1625      0.004560
     1.1630      0.002420
     1.1635      0.003860
     1.1640      0.003400
     1.1645      0.001020
     1.1650      0.001820
     1.1655      0.002490
     1.1660      0.000000
     1.1665      0.000920
     1.1670      0.000040
     1.1675      0.000000
     1.1680      0.002150
     1.1685      0.000000
     1.1690      0.001880
     1.1695      0.004270
     1.1700      0.000650
     1.1705      0.000400
     1.1710      0.000200
     1.1715      0.001420
     1.1720      0.002420
     1.1725      0.001980
     1.1730      0.000320
     1.1735      0.001950
     1.1740      0.000000
     1.1745      0.001240
     1.1750      0.000920
     1.1755      0.003360
     1.1760      0.000560
     1.1765      0.000520
     1.1770      0.000000
     1.1775      0.000250
     1.1780      0.000630
     1.1785      0.000330
     1.1790      0.000280
     1.1795      0.002870
     1.1800      0.001940
     1.1805      0.000330
     1.1810      0.003930
     1.1815      0.002630
     1.1820      0.002360
     1.1825      0.003310
     1.1830      0.005200
     1.1835      0.006810
     1.1840      0.008260
     1.1845      0.006830
     1.1850      0.005800
     1.1855      0.006670
     1.1860      0.006160
     1.1865      0.003670
     1.1870      0.005210
     1.1875      0.003960
     1.1880      0.001460
     1.1885      0.001190
     1.1890      0.000000
     1.1895      0.002510
     1.1900      0.001620
     1.1905      0.000050
     1.1910      0.002950
     1.1915      0.000580
     1.1920      0.001380
     1.1925      0.004030
     1.1930      0.001390
     1.1935      0.004890
     1.1940      0.003500
     1.1945      0.000000
     1.1950      0.001100
     1.1955      0.000480
     1.1960      0.002620
     1.1965      0.000490
     1.1970      0.003480
     1.1975      0.000000
     1.1980      0.000700
     1.1985      0.001970
     1.1990      0.001340
     1.1995      0.000000
     1.2000      0.000000
     1.2005      0.001220
     1.2010      0.000820
     1.2015      0.000000
     1.2020      0.000000
     1.2025      0.001780
     1.2030      0.001790
     1.2035      0.001090
     1.2040      0.000000
     1.2045      0.000000
     1.2050      0.000000
     1.2055      0.000270
     1.2060      0.002620
     1.2065      0.000580
     1.2070      0.001610
     1.2075      0.000120
     1.2080      0.000000
     1.2085      0.000000
     1.2090      0.001890
     1.2095      0.002960
     1.2100      0.000070
     1.2105      0.000050
     1.2110      0.000000
     1.2115      0.000000
     1.2120      0.001030
     1.2125      0.000000
     1.2130      0.000850
     1.2135      0.000070
     1.2140      0.000000
     1.2145      0.000000
     1.2150      0.000290
     1.2155      0.000090
     1.2160      0.000860
     1.2165      0.000500
     1.2170      0.003530
     1.2175      0.000000
     1.2180      0.000180
     1.2185      0.000000
     1.2190      0.000000
     1.2195      0.000030
     1.2200      0.000190
     1.2205      0.002490
     1.2210      0.002240
     1.2215      0.001610
     1.2220      0.000070
     1.2225      0.000780
     1.2230      0.000000
     1.2235      0.000090
     1.2240      0.001950
     1.2245      0.000010
     1.2250      0.001110
     1.2255      0.001500
     1.2260      0.000790
     1.2265      0.001890
     1.2270      0.001260
     1.2275      0.000970
     1.2280      0.001070
     1.2285      0.000000
     1.2290      0.002300
     1.2295      0.000000
     1.2300      0.000000
     1.2305      0.000210
     1.2310      0.002460
     1.2315      0.002170
     1.2320      0.000710
     1.2325      0.000260
     1.2330      0.002330
     1.2335      0.000160
     1.2340      0.001890
     1.2345      0.000630
     1.2350      0.000000
     1.2355      0.001900
     1.2360      0.003500
     1.2365      0.000000
     1.2370      0.000350
     1.2375      0.001080
     1.2380      0.000360
     1.2385      0.000010
     1.2390      0.000000
     1.2395      0.000000
     1.2400      0.001190
     1.2405      0.000000
     1.2410      0.000000
     1.2415      0.000000
     1.2420      0.000160
     1.2425      0.000000
     1.2430      0.000000
     1.2435      0.000000
     1.2440      0.000000
     1.2445      0.001740
     1.2450      0.000950
     1.2455      0.002010
     1.2460      0.000640
     1.2465      0.000090
     1.2470      0.002160
     1.2475      0.003130
     1.2480      0.004200
     1.2485      0.004750
     1.2490      0.001990
     1.2495      0.002490
     1.2500      0.001840
     1.2505      0.002660
     1.2510      0.002640
     1.2515      0.002920
     1.2520      0.000150
     1.2525      0.002810
     1.2530      0.003270
     1.2535      0.002220
     1.2540      0.000000
     1.2545      0.004710
     1.2550      0.001340
     1.2555      0.002080
     1.2560      0.003360
     1.2565      0.000640
     1.2570      0.003760
     1.2575      0.001650
     1.2580      0.002480
     1.2585      0.001270
     1.2590      0.001550
     1.2595      0.000050
     1.2600      0.000590
     1.2605      0.000000
     1.2610      0.000000
     1.2615      0.000340
     1.2620      0.002630
     1.2625      0.000000
     1.2630      0.000000
     1.2635      0.000000
     1.2640      0.000150
     1.2645      0.001440
     1.2650      0.000000
     1.2655      0.001840
     1.2660      0.000730
     1.2665      0.002400
     1.2670      0.000230
     1.2675      0.000000
     1.2680      0.001020
     1.2685      0.001050
     1.2690      0.000000
     1.2695      0.001190
     1.2700      0.000140
     1.2705      0.001220
     1.2710      0.000920
     1.2715      0.001300
     1.2720      0.000020
     1.2725      0.000870
     1.2730      0.000530
     1.2735      0.000430
     1.2740      0.000000
     1.2745      0.000630
     1.2750      0.000000
     1.2755      0.000000
     1.2760      0.000000
     1.2765      0.001940
     1.2770      0.000000
     1.2775      0.001190
     1.2780      0.000000
     1.2785      0.000000
     1.2790      0.000890
     1.2795      0.000840
     1.2800      0.001380
     1.2805      0.000680
     1.2810      0.000410
     1.2815      0.000360
     1.2820      0.000000
     1.2825      0.000940
     1.2830      0.000040
     1.2835      0.001260
     1.2840      0.000260
     1.2845      0.000390
     1.2850      0.002150
     1.2855      0.000230
     1.2860      0.000560
     1.2865      0.000000
     1.2870      0.000000
     1.2875      0.000000
     1.2880      0.000000
     1.2885      0.000120
     1.2890      0.000620
     1.2895      0.000170
     1.2900      0.002660
     1.2905      0.000980
     1.2910      0.001140
     1.2915      0.001480
     1.2920      0.001640
     1.2925      0.000670
     1.2930      0.000620
     1.2935      0.000000
     1.2940      0.000040
     1.2945      0.000000
     1.2950      0.000710
     1.2955      0.000560
     1.2960      0.000460
     1.2965      0.001250
     1.2970      0.001690
     1.2975      0.000680
     1.2980      0.000000
     1.2985      0.000810
     1.2990      0.001870
     1.2995      0.000710
     1.3000      0.000000
     1.3005      0.000340
     1.3010      0.000000
     1.3015      0.001620
     1.3020      0.003050
     1.3025      0.001900
     1.3030      0.000030
     1.3035      0.000560
     1.3040      0.000590
     1.3045      0.000000
     1.3050      0.000000
     1.3055      0.000000
     1.3060      0.000910
     1.3065      0.001880
     1.3070      0.000000
     1.3075      0.000460
     1.3080      0.000880
     1.3085      0.000700
     1.3090      0.001320
     1.3095      0.000000
     1.3100      0.000430
     1.3105      0.001220
     1.3110      0.001070
     1.3115      0.000340
     1.3120      0.000000
     1.3125      0.000000
     1.3130      0.000000
     1.3135      0.000000
     1.3140      0.000100
     1.3145      0.000890
     1.3150      0.000110
     1.3155      0.000250
     1.3160      0.000130
     1.3165      0.000000
     1.3170      0.001160
     1.3175      0.000000
     1.3180      0.000000
     1.3185      0.000000
     1.3190      0.000510
     1.3195      0.000320
     1.3200      0.000810
     1.3205      0.000060
     1.3210      0.000380
     1.3215      0.000000
     1.3220      0.000860
     1.3225      0.000660
     1.3230      0.001970
     1.3235      0.001630
     1.3240      0.002040
     1.3245      0.000260
     1.3250      0.000480
     1.3255      0.000000
     1.3260      0.000070
     1.3265      0.000260
     1.3270      0.000010
     1.3275      0.000200
     1.3280      0.000440
     1.3285      0.000290
     1.3290      0.000270
     1.3295      0.000000
     1.3300      0.000000
     1.3305      0.000310
     1.3310      0.000450
     1.3315      0.001920
     1.3320      0.000410
     1.3325      0.002310
     1.3330      0.000130
     1.3335      0.002340
     1.3340      0.002660
     1.3345      0.000680
     1.3350      0.000000
     1.3355      0.001880
     1.3360      0.000540
     1.3365      0.001590
     1.3370      0.001020
     1.3375      0.000880
     1.3380      0.000670
     1.3385      0.001120
     1.3390      0.000000
     1.3395      0.000000
     1.3400      0.000990
     1.3405      0.000000
     1.3410      0.000940
     1.3415      0.000000
     1.3420      0.000000
     1.3425      0.000790
     1.3430      0.000010
     1.3435      0.000000
     1.3440      0.001260
     1.3445      0.000000
     1.3450      0.000000
     1.3455      0.000150
     1.3460      0.000230
     1.3465      0.000000
     1.3470      0.000000
     1.3475      0.000000
     1.3480      0.001400
     1.3485      0.000000
     1.3490      0.001370
     1.3495      0.000000
     1.3500      0.000200
     1.3505      0.002230
     1.3510      0.001320
     1.3515      0.000380
     1.3520      0.000690
     1.3525      0.000200
     1.3530      0.000000
     1.3535      0.000000
     1.3540      0.000560
     1.3545      0.000000
     1.3550      0.000530
     1.3555      0.000000
     1.3560      0.000450
     1.3565      0.000000
     1.3570      0.000370
     1.3575      0.001970
     1.3580      0.000460
     1.3585      0.000000
     1.3590      0.000320
     1.3595      0.002790
     1.3600      0.000940
     1.3605      0.000000
     1.3610      0.000000
     1.3615      0.000000
     1.3620      0.000000
     1.3625      0.000310
     1.3630      0.000590
     1.3635      0.000250
     1.3640      0.000000
     1.3645      0.000000
     1.3650      0.000000
     1.3655      0.000000
     1.3660      0.000000
     1.3665      0.000000
     1.3670      0.000000
     1.3675      0.000820
     1.3680      0.000000
     1.3685      0.000000
     1.3690      0.001420
     1.3695      0.001910
     1.3700      0.003260
     1.3705      0.000000
     1.3710      0.000000
     1.3715      0.001610
     1.3720      0.001820
     1.3725      0.000040
     1.3730      0.000610
     1.3735      0.000030
     1.3740      0.000920
     1.3745      0.000000
     1.3750      0.000460
     1.3755      0.000630
     1.3760      0.000000
     1.3765      0.000590
     1.3770      0.001980
     1.3775      0.000100
     1.3780      0.000140
     1.3785      0.001410
     1.3790      0.000260
     1.3795      0.000440
     1.3800      0.000000
     1.3805      0.000000
     1.3810      0.000000
     1.3815      0.000000
     1.3820      0.000040
     1.3825      0.000200
     1.3830      0.000000
     1.3835      0.000000
     1.3840      0.000000
     1.3845      0.001510
     1.3850      0.000000
     1.3855      0.000000
     1.3860      0.000000
     1.3865      0.000450
     1.3870      0.000400
     1.3875      0.000120
     1.3880      0.000330
     1.3885      0.000130
     1.3890      0.000000
     1.3895      0.000000
     1.3900      0.000340
     1.3905      0.002100
     1.3910      0.000000
     1.3915      0.000080
     1.3920      0.000000
     1.3925      0.000000
     1.3930      0.000050
     1.3935      0.000020
     1.3940      0.001310
     1.3945      0.001760
     1.3950      0.002020
     1.3955      0.001850
     1.3960      0.000000
     1.3965      0.000000
     1.3970      0.000820
     1.3975      0.000010
     1.3980      0.002130
     1.3985      0.001430
     1.3990      0.000000
     1.3995      0.000960
     1.4000      0.000330
     1.4005      0.000650
     1.4010      0.001050
     1.4015      0.000700
     1.4020      0.000000
     1.4025      0.000180
     1.4030      0.000290
     1.4035      0.000520
     1.4040      0.000470
     1.4045      0.000780
     1.4050      0.000020
     1.4055      0.000000
     1.4060      0.000060
     1.4065      0.000110
     1.4070      0.000170
     1.4075      0.000400
     1.4080      0.000660
     1.4085      0.000530
     1.4090      0.001420
     1.4095      0.000620
     1.4100      0.000040
     1.4105      0.000770
     1.4110      0.000000
     1.4115      0.001900
     1.4120      0.000420
     1.4125      0.000000
     1.4130      0.001160
     1.4135      0.001700
     1.4140      0.001240
     1.4145      0.001220
     1.4150      0.000000
     1.4155      0.000000
     1.4160      0.000000
     1.4165      0.000000
     1.4170      0.001210
     1.4175      0.000040
     1.4180      0.000180
     1.4185      0.000000
     1.4190      0.000000
     1.4195      0.000000
     1.4200      0.000000
     1.4205      0.000000
     1.4210      0.000000
     1.4215      0.000000
     1.4220      0.000010
     1.4225      0.000260
     1.4230      0.002340
     1.4235      0.000020
     1.4240      0.000000
     1.4245      0.000320
     1.4250      0.001460
     1.4255      0.001540
     1.4260      0.000000
     1.4265      0.001070
     1.4270      0.000000
     1.4275      0.000000
     1.4280      0.001390
     1.4285      0.001120
     1.4290      0.000020
     1.4295      0.000290
     1.4300      0.003000
     1.4305      0.004400
     1.4310      0.001760
     1.4315      0.002000
     1.4320      0.002290
     1.4325      0.001330
     1.4330      0.001960
     1.4335      0.001160
     1.4340      0.002200
     1.4345      0.001490
     1.4350      0.002100
     1.4355      0.002100
     1.4360      0.002600
     1.4365      0.002210
     1.4370      0.002630
     1.4375      0.002440
     1.4380      0.002030
     1.4385      0.001700
     1.4390      0.001260
     1.4395      0.002420
     1.4400      0.002590
     1.4405      0.003200
     1.4410      0.003910
     1.4415      0.003810
     1.4420      0.004990
     1.4425      0.004280
     1.4430      0.004260
     1.4435      0.004730
     1.4440      0.004610
     1.4445      0.006430
     1.4450      0.006200
     1.4455      0.008220
     1.4460      0.009250
     1.4465      0.010790
     1.4470      0.009230
     1.4475      0.011220
     1.4480      0.011500
     1.4485      0.010890
     1.4490      0.009730
     1.4495      0.008420
     1.4500      0.007780
     1.4505      0.007400
     1.4510      0.008480
     1.4515      0.005770
     1.4520      0.004590
     1.4525      0.003790
     1.4530      0.004550
     1.4535      0.003130
     1.4540      0.004690
     1.4545      0.002550
     1.4550      0.002050
     1.4555      0.002950
     1.4560      0.002130
     1.4565      0.003020
     1.4570      0.002800
     1.4575      0.004100
     1.4580      0.004230
     1.4585      0.005760
     1.4590      0.005280
     1.4595      0.004750
     1.4600      0.002340
     1.4605      0.002320
     1.4610      0.001440
     1.4615      0.002080
     1.4620      0.002150
     1.4625      0.000000
     1.4630      0.001570
     1.4635      0.000860
     1.4640      0.000150
     1.4645      0.000950
     1.4650      0.000000
     1.4655      0.000040
     1.4660      0.001170
     1.4665      0.001410
     1.4670      0.000910
     1.4675      0.000680
     1.4680      0.001050
     1.4685      0.000000
     1.4690      0.000000
     1.4695      0.000000
     1.4700      0.000000
     1.4705      0.000470
     1.4710      0.000000
     1.4715      0.000320
     1.4720      0.000160
     1.4725      0.000120
     1.4730      0.001520
     1.4735      0.000580
     1.4740      0.000490
     1.4745      0.000010
     1.4750      0.000000
     1.4755      0.000110
     1.4760      0.000000
     1.4765      0.001120
     1.4770      0.000370
     1.4775      0.000080
     1.4780      0.000410
     1.4785      0.000040
     1.4790      0.000030
     1.4795      0.000000
     1.4800      0.000000
     1.4805      0.000000
     1.4810      0.000000
     1.4815      0.000000
     1.4820      0.000280
     1.4825      0.000540
     1.4830      0.000000
     1.4835      0.000360
     1.4840      0.000380
     1.4845      0.000000
     1.4850      0.000000
     1.4855      0.000000
     1.4860      0.000720
     1.4865      0.001960
     1.4870      0.000010
     1.4875      0.000000
     1.4880      0.000000
     1.4885      0.000000
     1.4890      0.000000
     1.4895      0.000480
     1.4900      0.001600
     1.4905      0.000390
     1.4910      0.000000
     1.4915      0.000100
     1.4920      0.000720
     1.4925      0.000560
     1.4930      0.000800
     1.4935      0.000690
     1.4940      0.000220
     1.4945      0.000030
     1.4950      0.000420
     1.4955      0.000140
     1.4960      0.000090
     1.4965      0.000630
     1.4970      0.000670
     1.4975      0.000470
     1.4980      0.000190
     1.4985      0.000000
     1.4990      0.000270
     1.4995      0.000510
     1.5000      0.000220
     1.5005      0.000000
     1.5010      0.000100
     1.5015      0.000770
     1.5020      0.000960
     1.5025      0.000000
     1.5030      0.000000
     1.5035      0.000000
     1.5040      0.000000
     1.5045      0.000000
     1.5050      0.000000
     1.5055      0.000000
     1.5060      0.000120
     1.5065      0.000890
     1.5070      0.000000
     1.5075      0.000000
     1.5080      0.000490
     1.5085      0.000560
     1.5090      0.001290
     1.5095      0.001270
     1.5100      0.000720
     1.5105      0.000610
     1.5110      0.000280
     1.5115      0.000810
     1.5120      0.000530
     1.5125      0.000000
     1.5130      0.000000
     1.5135      0.000000
     1.5140      0.000120
     1.5145      0.000550
     1.5150      0.000000
     1.5155      0.001290
     1.5160      0.000100
     1.5165      0.000990
     1.5170      0.001050
     1.5175      0.000530
     1.5180      0.000000
     1.5185      0.000650
     1.5190      0.000980
     1.5195      0.000540
     1.5200      0.000000
     1.5205      0.000630
     1.5210      0.000760
     1.5215      0.000530
     1.5220      0.001270
     1.5225      0.001030
     1.5230      0.000000
     1.5235      0.000320
     1.5240      0.000000
     1.5245      0.000050
     1.5250      0.000750
     1.5255      0.000550
     1.5260      0.000290
     1.5265      0.000540
     1.5270      0.000000
     1.5275      0.000940
     1.5280      0.000540
     1.5285      0.001220
     1.5290      0.000720
     1.5295      0.000000
     1.5300      0.000140
     1.5305      0.001070
     1.5310      0.000130
     1.5315      0.000990
     1.5320      0.000630
     1.5325      0.000870
     1.5330      0.000000
     1.5335      0.000000
     1.5340      0.000000
     1.5345      0.000150
     1.5350      0.000000
     1.5355      0.000000
     1.5360      0.000540
     1.5365      0.000800
     1.5370      0.000380
     1.5375      0.000800
     1.5380      0.000200
     1.5385      0.000140
     1.5390      0.000000
     1.5395      0.000000
     1.5400      0.000000
     1.5405      0.000340
     1.5410      0.000820
     1.5415      0.000890
     1.5420      0.000380
     1.5425      0.000580
     1.5430      0.000010
     1.5435      0.000110
     1.5440      0.000000
     1.5445      0.000170
     1.5450      0.000000
     1.5455      0.001030
     1.5460      0.000420
     1.5465      0.000070
     1.5470      0.000190
     1.5475      0.000000
     1.5480      0.000450
     1.5485      0.000280
     1.5490      0.001790
     1.5495      0.000640
     1.5500      0.000260
     1.5505      0.000370
     1.5510      0.000790
     1.5515      0.000820
     1.5520      0.001750
     1.5525      0.000000
     1.5530      0.000150
     1.5535      0.000520
     1.5540      0.000000
     1.5545      0.000350
     1.5550      0.000000
     1.5555      0.000990
     1.5560      0.000490
     1.5565      0.000380
     1.5570      0.000630
     1.5575      0.000000
     1.5580      0.000000
     1.5585      0.000550
     1.5590      0.000020
     1.5595      0.000020
     1.5600      0.000000
     1.5605      0.001270
     1.5610      0.000100
     1.5615      0.000000
     1.5620      0.000160
     1.5625      0.000000
     1.5630      0.001460
     1.5635      0.000000
     1.5640      0.000000
     1.5645      0.000230
     1.5650      0.000530
     1.5655      0.000380
     1.5660      0.000000
     1.5665      0.000180
     1.5670      0.000610
     1.5675      0.001400
     1.5680      0.001130
     1.5685      0.000000
     1.5690      0.000000
     1.5695      0.000040
     1.5700      0.001970
     1.5705      0.001230
     1.5710      0.001120
     1.5715      0.000140
     1.5720      0.000010
     1.5725      0.000000
     1.5730      0.000080
     1.5735      0.000580
     1.5740      0.000070
     1.5745      0.000640
     1.5750      0.000000
     1.5755      0.000000
     1.5760      0.000190
     1.5765      0.000000
     1.5770      0.000040
     1.5775      0.000000
     1.5780      0.000550
     1.5785      0.001110
     1.5790      0.001360
     1.5795      0.001190
     1.5800      0.000420
     1.5805      0.000690
     1.5810      0.000550
     1.5815      0.000710
     1.5820      0.000480
     1.5825      0.000120
     1.5830      0.000160
     1.5835      0.001200
     1.5840      0.001190
     1.5845      0.001370
     1.5850      0.000910
     1.5855      0.000770
     1.5860      0.000000
     1.5865      0.000000
     1.5870      0.000960
     1.5875      0.000180
     1.5880      0.000130
     1.5885      0.000000
     1.5890      0.000180
     1.5895      0.000030
     1.5900      0.000000
     1.5905      0.000000
     1.5910      0.000000
     1.5915      0.000140
     1.5920      0.000090
     1.5925      0.000000
     1.5930      0.000000
     1.5935      0.000000
     1.5940      0.000100
     1.5945      0.000010
     1.5950      0.000120
     1.5955      0.001670
     1.5960      0.000050
     1.5965      0.000700
     1.5970      0.000090
     1.5975      0.000350
     1.5980      0.000360
     1.5985      0.000540
     1.5990      0.000000
     1.5995      0.000450
     1.6000      0.000000
     1.6005      0.000000
     1.6010      0.000000
     1.6015      0.000200
     1.6020      0.000000
     1.6025      0.000920
     1.6030      0.001510
     1.6035      0.000020
     1.6040      0.000400
     1.6045      0.000990
     1.6050      0.000030
     1.6055      0.000000
     1.6060      0.000070
     1.6065      0.000120
     1.6070      0.000110
     1.6075      0.000470
     1.6080      0.000130
     1.6085      0.001150
     1.6090      0.000880
     1.6095      0.000180
     1.6100      0.000000
     1.6105      0.000000
     1.6110      0.000000
     1.6115      0.000000
     1.6120      0.000000
     1.6125      0.000000
     1.6130      0.000000
     1.6135      0.000000
     1.6140      0.000640
     1.6145      0.000050
     1.6150      0.001130
     1.6155      0.000130
     1.6160      0.001110
     1.6165      0.000850
     1.6170      0.002320
     1.6175      0.001270
     1.6180      0.000470
     1.6185      0.001460
     1.6190      0.001880
     1.6195      0.000480
     1.6200      0.000000
     1.6205      0.000000
     1.6210      0.000030
     1.6215      0.000450
     1.6220      0.000000
     1.6225      0.000000
     1.6230      0.000000
     1.6235      0.000000
     1.6240      0.000000
     1.6245      0.000000
     1.6250      0.000000
     1.6255      0.000000
     1.6260      0.000000
     1.6265      0.000570
     1.6270      0.000000
     1.6275      0.000000
     1.6280      0.000000
     1.6285      0.000000
     1.6290      0.000000
     1.6295      0.000000
     1.6300      0.000000
     1.6305      0.000160
     1.6310      0.000100
     1.6315      0.000430
     1.6320      0.000000
     1.6325      0.000000
     1.6330      0.000900
     1.6335      0.002140
     1.6340      0.002050
     1.6345      0.002330
     1.6350      0.003650
     1.6355      0.004230
     1.6360      0.005890
     1.6365      0.008240
     1.6370      0.012740
     1.6375      0.018200
     1.6380      0.027590
     1.6385      0.043240
     1.6390      0.070550
     1.6395      0.112590
     1.6400      0.184020
     1.6405      0.299050
     1.6410      0.467870
     1.6415      0.663590
     1.6420      0.825150
     1.6425      0.907650
     1.6430      0.914340
     1.6435      0.893730
     1.6440      0.867190
     1.6445      0.849220
     1.6450      0.844100
     1.6455      0.847910
     1.6460      0.857910
     1.6465      0.870620
     1.6470      0.884290
     1.6475      0.897120
     1.6480      0.905940
     1.6485      0.916760
     1.6490      0.923630
     1.6495      0.930990
     1.6500      0.938490
     1.6505      0.944910
     1.6510      0.952190
     1.6515      0.957550
     1.6520      0.961460
     1.6525      0.964820
     1.6530      0.966270
     1.6535      0.964110
     1.6540      0.957300
     1.6545      0.949390
     1.6550      0.938790
     1.6555      0.927650
     1.6560      0.914460
     1.6565      0.901580
     1.6570      0.892450
     1.6575      0.885940
     1.6580      0.882680
     1.6585      0.882390
     1.6590      0.882670
     1.6595      0.886240
     1.6600      0.890990
     1.6605      0.895850
     1.6610      0.899140
     1.6615      0.902790
     1.6620      0.903630
     1.6625      0.904910
     1.6630      0.908180
     1.6635      0.915610
     1.6640      0.923730
     1.6645      0.927330
     1.6650      0.909970
     1.6655      0.851800
     1.6660      0.738560
     1.6665      0.576430
     1.6670      0.409590
     1.6675      0.272230
     1.6680      0.176340
     1.6685      0.113950
     1.6690      0.073720
     1.6695      0.049520
     1.6700      0.033790
     1.6705      0.024110
     1.6710      0.017080
     1.6715      0.012840
     1.6720      0.009600
     1.6725      0.008510
     1.6730      0.007480
     1.6735      0.006490
     1.6740      0.005900
     1.6745      0.004360
     1.6750      0.004310
     1.6755      0.005990
     1.6760      0.005080
     1.6765      0.005100
     1.6770      0.004720
     1.6775      0.003920
     1.6780      0.004620
     1.6785      0.003680
     1.6790      0.004070
     1.6795      0.003160
     1.6800      0.002090
     1.6805      0.003120
     1.6810      0.002860
     1.6815      0.002750
     1.6820      0.002300
     1.6825      0.002060
     1.6830      0.002890
     1.6835      0.003410
     1.6840      0.002690
     1.6845      0.002810
     1.6850      0.003330
     1.6855      0.003410
     1.6860      0.004530
     1.6865      0.004260
     1.6870      0.004250
     1.6875      0.004320
     1.6880      0.002200
     1.6885      0.003030
     1.6890      0.002230
     1.6895      0.001170
     1.6900      0.001960
     1.6905      0.001930
     1.6910      0.002720
     1.6915      0.001830
     1.6920      0.002430
     1.6925      0.001890
     1.6930      0.000790
     1.6935      0.000580
     1.6940      0.000970
     1.6945      0.000270
     1.6950      0.000440
     1.6955      0.000000
     1.6960      0.000450
     1.6965      0.000020
     1.6970      0.000040
     1.6975      0.000000
     1.6980      0.000770
     1.6985      0.000640
     1.6990      0.000000
     1.6995      0.000000
     1.7000      0.000000
     1.7005      0.000040
     1.7010      0.000010
     1.7015      0.000250
     1.7020      0.000340
     1.7025      0.001200
     1.7030      0.001660
     1.7035      0.001880
     1.7040      0.001420
     1.7045      0.000250
     1.7050      0.000250
     1.7055      0.001610
     1.7060      0.001240
     1.7065      0.000220
     1.7070      0.000000
     1.7075      0.000220
     1.7080      0.001420
     1.7085      0.000430
     1.7090      0.000470
     1.7095      0.000240
     1.7100      0.000470
     1.7105      0.000000
     1.7110      0.000580
     1.7115      0.000140
     1.7120      0.000240
     1.7125      0.000000
     1.7130      0.000220
     1.7135      0.000030
     1.7140      0.000180
     1.7145      0.000130
     1.7150      0.000190
     1.7155      0.000740
     1.7160      0.000670
     1.7165      0.001070
     1.7170      0.000560
     1.7175      0.000570
     1.7180      0.000220
     1.7185      0.000100
     1.7190      0.000780
     1.7195      0.001080
     1.7200      0.000900
     1.7205      0.000510
     1.7210      0.000000
     1.7215      0.000090
     1.7220      0.000000
     1.7225      0.000000
     1.7230      0.000280
     1.7235      0.000000
     1.7240      0.000000
     1.7245      0.000000
     1.7250      0.000000
     1.7255      0.000160
     1.7260      0.000370
     1.7265      0.000550
     1.7270      0.000840
     1.7275      0.000280
     1.7280      0.000000
     1.7285      0.000010
     1.7290      0.000380
     1.7295      0.000000
     1.7300      0.000000
     1.7305      0.000000
     1.7310      0.000000
     1.7315      0.000050
     1.7320      0.000000
     1.7325      0.000000
     1.7330      0.000000
     1.7335      0.000000
     1.7340      0.000340
     1.7345      0.000020
     1.7350      0.001030
     1.7355      0.001900
     1.7360      0.000000
     1.7365      0.000000
     1.7370      0.000000
     1.7375      0.000000
     1.7380      0.000170
     1.7385      0.000000
     1.7390      0.000000
     1.7395      0.000000
     1.7400      0.000000
     1.7405      0.001040
     1.7410      0.000580
     1.7415      0.000640
     1.7420      0.000090
     1.7425      0.000000
     1.7430      0.000000
     1.7435      0.000500
     1.7440      0.000790
     1.7445      0.000110
     1.7450      0.000000
     1.7455      0.000510
     1.7460      0.000000
     1.7465      0.000000
     1.7470      0.000420
     1.7475      0.000000
     1.7480      0.000090
     1.7485      0.000540
     1.7490      0.000030
     1.7495      0.000120
     1.7500      0.000000
     1.7505      0.000000
     1.7510      0.000010
     1.7515      0.000380
     1.7520      0.000910
     1.7525      0.000000
     1.7530      0.000000
     1.7535      0.000000
     1.7540      0.000400
     1.7545      0.000000
     1.7550      0.000000
     1.7555      0.000000
     1.7560      0.000000
     1.7565      0.000000
     1.7570      0.000000
     1.7575      0.000870
     1.7580      0.000590
     1.7585      0.000000
     1.7590      0.000090
     1.7595      0.000140
     1.7600      0.000080
     1.7605      0.000000
     1.7610      0.000000
     1.7615      0.000000
     1.7620      0.000000
     1.7625      0.000000
     1.7630      0.000000
     1.7635      0.000000
     1.7640      0.000050
     1.7645      0.000000
     1.7650      0.000270
     1.7655      0.000840
     1.7660      0.000250
     1.7665      0.000870
     1.7670      0.000620
     1.7675      0.000270
     1.7680      0.000520
     1.7685      0.000750
     1.7690      0.001140
     1.7695      0.000000
     1.7700      0.000230
     1.7705      0.000020
     1.7710      0.000310
     1.7715      0.000000
     1.7720      0.000000
     1.7725      0.000840
     1.7730      0.000000
     1.7735      0.000050
     1.7740      0.000000
     1.7745      0.000000
     1.7750      0.000000
     1.7755      0.000000
     1.7760      0.000280
     1.7765      0.000050
     1.7770      0.000490
     1.7775      0.000000
     1.7780      0.000090
     1.7785      0.000550
     1.7790      0.001140
     1.7795      0.001880
     1.7800      0.000800
     1.7805      0.000260
     1.7810      0.000000
     1.7815      0.000050
     1.7820      0.000000
     1.7825      0.000140
     1.7830      0.000390
     1.7835      0.000750
     1.7840      0.000590
     1.7845      0.000230
     1.7850      0.000000
     1.7855      0.000560
     1.7860      0.001140
     1.7865      0.000090
     1.7870      0.000140
     1.7875      0.000320
     1.7880      0.000080
     1.7885      0.000000
     1.7890      0.000080
     1.7895      0.000000
     1.7900      0.000100
     1.7905      0.000490
     1.7910      0.000430
     1.7915      0.000880
     1.7920      0.000270
     1.7925      0.000030
     1.7930      0.000450
     1.7935      0.000820
     1.7940      0.000420
     1.7945      0.000400
     1.7950      0.000000
     1.7955      0.000870
     1.7960      0.000430
     1.7965      0.000110
     1.7970      0.000440
     1.7975      0.000200
     1.7980      0.000560
     1.7985      0.000000
     1.7990      0.000130
     1.7995      0.000050
     1.8000      0.000000
     1.8005      0.000000
     1.8010      0.000020
     1.8015      0.000000
     1.8020      0.000040
     1.8025      0.001090
     1.8030      0.000910
     1.8035      0.000000
     1.8040      0.000000
     1.8045      0.000000
     1.8050      0.000000
     1.8055      0.000000
     1.8060      0.000020
     1.8065      0.000280
     1.8070      0.000440
     1.8075      0.000000
     1.8080      0.000000
     1.8085      0.000140
     1.8090      0.000400
     1.8095      0.000250
     1.8100      0.000000
     1.8105      0.000560
     1.8110      0.000000
     1.8115      0.000000
     1.8120      0.000000
     1.8125      0.000000
     1.8130      0.000000
     1.8135      0.000000
     1.8140      0.000000
     1.8145      0.000000
     1.8150      0.000000
     1.8155      0.000220
     1.8160      0.000520
     1.8165      0.000000
     1.8170      0.000000
     1.8175      0.000050
     1.8180      0.000000
     1.8185      0.000000
     1.8190      0.000400
     1.8195      0.000670
     1.8200      0.000000
     1.8205      0.000000
     1.8210      0.000000
     1.8215      0.000350
     1.8220      0.000220
     1.8225      0.000210
     1.8230      0.000000
     1.8235      0.000000
     1.8240      0.000050
     1.8245      0.000070
     1.8250      0.000000
     1.8255      0.000000
     1.8260      0.000000
     1.8265      0.000000
     1.8270      0.000000
     1.8275      0.000000
     1.8280      0.000130
     1.8285      0.000530
     1.8290      0.000480
     1.8295      0.000320
     1.8300      0.000710
     1.8305      0.000920
     1.8310      0.000060
     1.8315      0.000020
     1.8320      0.000040
     1.8325      0.000470
     1.8330      0.000400
     1.8335      0.000660
     1.8340      0.000160
     1.8345      0.000010
     1.8350      0.000000
     1.8355      0.000000
     1.8360      0.000000
     1.8365      0.000000
     1.8370      0.000070
     1.8375      0.000230
     1.8380      0.000380
     1.8385      0.000050
     1.8390      0.000100
     1.8395      0.000020
     1.8400      0.000190
     1.8405      0.000120
     1.8410      0.000070
     1.8415      0.000290
     1.8420      0.000740
     1.8425      0.000720
     1.8430      0.000420
     1.8435      0.001080
     1.8440      0.000230
     1.8445      0.000910
     1.8450      0.000360
     1.8455      0.000250
     1.8460      0.001110
     1.8465      0.000250
     1.8470      0.000160
     1.8475      0.000750
     1.8480      0.000820
     1.8485      0.000580
     1.8490      0.000000
     1.8495      0.000000
     1.8500      0.000210
     1.8505      0.000620
     1.8510      0.000220
     1.8515      0.000130
     1.8520      0.000330
     1.8525      0.000210
     1.8530      0.000560
     1.8535      0.000440
     1.8540      0.000010
     1.8545      0.000340
     1.8550      0.000840
     1.8555      0.001070
     1.8560      0.001590
     1.8565      0.000610
     1.8570      0.000040
     1.8575      0.000000
     1.8580      0.000230
     1.8585      0.000680
     1.8590      0.000450
     1.8595      0.000510
     1.8600      0.000250
     1.8605      0.000450
     1.8610      0.000610
     1.8615      0.000720
     1.8620      0.001000
     1.8625      0.000230
     1.8630      0.000000
     1.8635      0.000000
     1.8640      0.000060
     1.8645      0.000410
     1.8650      0.000000
     1.8655      0.000000
     1.8660      0.000280
     1.8665      0.001430
     1.8670      0.000690
     1.8675      0.000510
     1.8680      0.001250
     1.8685      0.001110
     1.8690      0.000860
     1.8695      0.000630
     1.8700      0.000140
     1.8705      0.000030
     1.8710      0.000000
     1.8715      0.000000
     1.8720      0.000140
     1.8725      0.000160
     1.8730      0.001050
     1.8735      0.001690
     1.8740      0.000670
     1.8745      0.000770
     1.8750      0.000400
     1.8755      0.000000
     1.8760      0.000000
     1.8765      0.000050
     1.8770      0.000310
     1.8775      0.000500
     1.8780      0.000580
     1.8785      0.000980
     1.8790      0.000980
     1.8795      0.000310
     1.8800      0.000770
     1.8805      0.000060
     1.8810      0.000340
     1.8815      0.000030
     1.8820      0.000000
     1.8825      0.000000
     1.8830      0.000080
     1.8835      0.000170
     1.8840      0.000010
     1.8845      0.000600
     1.8850      0.000440
     1.8855      0.000200
     1.8860      0.000450
     1.8865      0.000000
     1.8870      0.000210
     1.8875      0.000800
     1.8880      0.000930
     1.8885      0.001430
     1.8890      0.001300
     1.8895      0.000570
     1.8900      0.000000
     1.8905      0.000130
     1.8910      0.000060
     1.8915      0.000000
     1.8920      0.000000
     1.8925      0.000000
     1.8930      0.000000
     1.8935      0.000000
     1.8940      0.000000
     1.8945      0.000000
     1.8950      0.000090
     1.8955      0.000410
     1.8960      0.000000
     1.8965      0.000000
     1.8970      0.000000
     1.8975      0.000000
     1.8980      0.000290
     1.8985      0.000710
     1.8990      0.000000
     1.8995      0.000330
     1.9000      0.000710
     1.9005      0.000360
     1.9010      0.000840
     1.9015      0.000740
     1.9020      0.000730
     1.9025      0.000750
     1.9030      0.000570
     1.9035      0.000830
     1.9040      0.000850
     1.9045      0.000990
     1.9050      0.000920
     1.9055      0.000000
     1.9060      0.000000
     1.9065      0.000000
     1.9070      0.000250
     1.9075      0.000800
     1.9080      0.000550
     1.9085      0.000270
     1.9090      0.000010
     1.9095      0.000320
     1.9100      0.000000
     1.9105      0.000000
     1.9110      0.000000
     1.9115      0.000900
     1.9120      0.001860
     1.9125      0.001290
     1.9130      0.001160
     1.9135      0.000480
     1.9140      0.000400
     1.9145      0.001260
     1.9150      0.002610
     1.9155      0.002450
     1.9160      0.002570
     1.9165      0.003710
     1.9170      0.003380
     1.9175      0.004280
     1.9180      0.004550
     1.9185      0.004050
     1.9190      0.004450
     1.9195      0.004370
     1.9200      0.003780
     1.9205      0.003720
     1.9210      0.004040
     1.9215      0.003090
     1.9220      0.002170
     1.9225      0.001780
     1.9230      0.001920
     1.9235      0.002200
     1.9240      0.002270
     1.9245      0.002890
     1.9250      0.002760
     1.9255      0.002110
     1.9260      0.002680
     1.9265      0.002800
     1.9270      0.003550
     1.9275      0.002970
     1.9280      0.002940
     1.9285      0.002580
     1.9290      0.003430
     1.9295      0.003930
     1.9300      0.003450
     1.9305      0.002340
     1.9310      0.001540
     1.9315      0.002610
     1.9320      0.003640
     1.9325      0.003270
     1.9330      0.002530
     1.9335      0.003520
     1.9340      0.003290
     1.9345      0.001450
     1.9350      0.001040
     1.9355      0.002000
     1.9360      0.001680
     1.9365      0.001200
     1.9370      0.001660
     1.9375      0.002020
     1.9380      0.002140
     1.9385      0.001720
     1.9390      0.001800
     1.9395      0.001910
     1.9400      0.002120
     1.9405      0.002560
     1.9410      0.001950
     1.9415      0.001060
     1.9420      0.001430
     1.9425      0.001110
     1.9430      0.000680
     1.9435      0.001270
     1.9440      0.002190
     1.9445      0.001860
     1.9450      0.001550
     1.9455      0.000460
     1.9460      0.000000
     1.9465      0.000380
     1.9470      0.001040
     1.9475      0.000960
     1.9480      0.000620
     1.9485      0.000000
     1.9490      0.000000
     1.9495      0.000420
     1.9500      0.001220
     1.9505      0.001370
     1.9510      0.000880
     1.9515      0.000230
     1.9520      0.001690
     1.9525      0.002190
     1.9530      0.001310
     1.9535      0.000660
     1.9540      0.000200
     1.9545      0.000300
     1.9550      0.000010
     1.9555      0.000060
     1.9560      0.000960
     1.9565      0.001480
     1.9570      0.001130
     1.9575      0.000630
     1.9580      0.000780
     1.9585      0.000640
     1.9590      0.000670
     1.9595      0.000910
     1.9600      0.000910
     1.9605      0.000630
     1.9610      0.000730
     1.9615      0.000120
     1.9620      0.001070
     1.9625      0.001100
     1.9630      0.000350
     1.9635      0.000150
     1.9640      0.001190
     1.9645      0.000840
     1.9650      0.000660
     1.9655      0.001280
     1.9660      0.001460
     1.9665      0.000770
     1.9670      0.000350
     1.9675      0.000680
     1.9680      0.000720
     1.9685      0.000230
     1.9690      0.000100
     1.9695      0.000820
     1.9700      0.000690
     1.9705      0.001130
     1.9710      0.000830
     1.9715      0.000640
     1.9720      0.000800
     1.9725      0.001270
     1.9730      0.000490
     1.9735      0.000000
     1.9740      0.001170
     1.9745      0.001390
     1.9750      0.001990
     1.9755      0.001580
     1.9760      0.001280
     1.9765      0.000660
     1.9770      0.000000
     1.9775      0.000000
     1.9780      0.000060
     1.9785      0.000330
     1.9790      0.000410
     1.9795      0.000520
     1.9800      0.000710
     1.9805      0.000970
     1.9810      0.000930
     1.9815      0.000770
     1.9820      0.000470
     1.9825      0.000690
     1.9830      0.000350
     1.9835      0.000960
     1.9840      0.001990
     1.9845      0.001820
     1.9850      0.000420
     1.9855      0.000590
     1.9860      0.001490
     1.9865      0.000820
     1.9870      0.000590
     1.9875      0.001950
     1.9880      0.001290
     1.9885      0.000380
     1.9890      0.000060
     1.9895      0.000010
     1.9900      0.000120
     1.9905      0.000060
     1.9910      0.000000
     1.9915      0.000000
     1.9920      0.000140
     1.9925      0.000620
     1.9930      0.000890
     1.9935      0.000820
     1.9940      0.000880
     1.9945      0.001130
     1.9950      0.000860
     1.9955      0.001100
     1.9960      0.001390
     1.9965      0.000910
     1.9970      0.000340
     1.9975      0.000050
     1.9980      0.000090
     1.9985      0.000690
     1.9990      0.000830
     1.9995      0.000940
     2.0000      0.001810
     2.0005      0.001430
     2.0010      0.000900
     2.0015      0.001350
     2.0020      0.001740
     2.0025      0.000460
     2.0030      0.000000
     2.0035      0.000190
     2.0040      0.000390
     2.0045      0.000310
     2.0050      0.000660
     2.0055      0.000260
     2.0060      0.000000
     2.0065      0.000380
     2.0070      0.000860
     2.0075      0.000460
     2.0080      0.000420
     2.0085      0.000760
     2.0090      0.001260
     2.0095      0.001450
     2.0100      0.002320
     2.0105      0.001790
     2.0110      0.000500
     2.0115      0.000240
     2.0120      0.001410
     2.0125      0.002180
     2.0130      0.001220
     2.0135      0.000690
     2.0140      0.000970
     2.0145      0.000850
     2.0150      0.000370
     2.0155      0.000350
     2.0160      0.001010
     2.0165      0.001190
     2.0170      0.000450
     2.0175      0.001080
     2.0180      0.001750
     2.0185      0.001150
     2.0190      0.001000
     2.0195      0.001540
     2.0200      0.001730
     2.0205      0.001480
     2.0210      0.000940
     2.0215      0.000190
     2.0220      0.000000
     2.0225      0.001520
     2.0230      0.002270
     2.0235      0.001150
     2.0240      0.001330
     2.0245      0.001460
     2.0250      0.001920
     2.0255      0.001750
     2.0260      0.001700
     2.0265      0.001800
     2.0270      0.001610
     2.0275      0.001850
     2.0280      0.001910
     2.0285      0.002050
     2.0290      0.001340
     2.0295      0.000260
     2.0300      0.000940
     2.0305      0.001740
     2.0310      0.001240
     2.0315      0.000660
     2.0320      0.001040
     2.0325      0.001190
     2.0330      0.000950
     2.0335      0.000710
     2.0340      0.001450
     2.0345      0.002120
     2.0350      0.001560
     2.0355      0.001350
     2.0360      0.000700
     2.0365      0.000320
     2.0370      0.000990
     2.0375      0.001930
     2.0380      0.001950
     2.0385      0.001340
     2.0390      0.001170
     2.0395      0.001360
     2.0400      0.001090
     2.0405      0.000390
     2.0410      0.000250
     2.0415      0.000470
     2.0420      0.000670
     2.0425      0.000230
     2.0430      0.001140
     2.0435      0.001730
     2.0440      0.000690
     2.0445      0.001130
     2.0450      0.001490
     2.0455      0.001370
     2.0460      0.001010
     2.0465      0.001230
     2.0470      0.001440
     2.0475      0.000890
     2.0480      0.000730
     2.0485      0.000470
     2.0490      0.000060
     2.0495      0.000000
     2.0500      0.000000
     2.0505      0.000570
     2.0510      0.000640
     2.0515      0.000330
     2.0520      0.000690
     2.0525      0.000710
     2.0530      0.000640
     2.0535      0.001220
     2.0540      0.001340
     2.0545      0.000430
     2.0550      0.000000
     2.0555      0.000000
     2.0560      0.000000
     2.0565      0.000000
     2.0570      0.000200
     2.0575      0.000420
     2.0580      0.000010
     2.0585      0.000070
     2.0590      0.000920
     2.0595      0.000650
     2.0600      0.001230
     2.0605      0.001230
     2.0610      0.000940
     2.0615      0.001210
     2.0620      0.000980
     2.0625      0.000820
     2.0630      0.000150
     2.0635      0.000000
     2.0640      0.000170
     2.0645      0.000510
     2.0650      0.000950
     2.0655      0.001150
     2.0660      0.000590
     2.0665      0.000260
     2.0670      0.000000
     2.0675      0.000000
     2.0680      0.000190
     2.0685      0.001070
     2.0690      0.001000
     2.0695      0.000450
     2.0700      0.000490
     2.0705      0.000770
     2.0710      0.001450
     2.0715      0.001240
     2.0720      0.000760
     2.0725      0.000550
     2.0730      0.000060
     2.0735      0.000170
     2.0740      0.000770
     2.0745      0.000290
     2.0750      0.000000
     2.0755      0.001250
     2.0760      0.000870
     2.0765      0.000230
     2.0770      0.000220
     2.0775      0.000020
     2.0780      0.000200
     2.0785      0.000770
     2.0790      0.000940
     2.0795      0.000800
     2.0800      0.001070
     2.0805      0.001090
     2.0810      0.000260
     2.0815      0.000000
     2.0820      0.000000
     2.0825      0.000000
     2.0830      0.000000
     2.0835      0.000000
     2.0840      0.000030
     2.0845      0.000140
     2.0850      0.000030
     2.0855      0.000000
     2.0860      0.000000
     2.0865      0.000000
     2.0870      0.000410
     2.0875      0.001230
     2.0880      0.001390
     2.0885      0.000920
     2.0890      0.000990
     2.0895      0.000570
     2.0900      0.000270
     2.0905      0.001100
     2.0910      0.000720
     2.0915      0.000030
     2.0920      0.000000
     2.0925      0.000000
     2.0930      0.000000
     2.0935      0.000000
     2.0940      0.000360
     2.0945      0.000330
     2.0950      0.000260
     2.0955      0.000340
     2.0960      0.000030
     2.0965      0.000000
     2.0970      0.000000
     2.0975      0.000200
     2.0980      0.000320
     2.0985      0.000050
     2.0990      0.000000
     2.0995      0.000210
     2.1000      0.000080
     2.1005      0.000000
     2.1010      0.000000
     2.1015      0.000000
     2.1020      0.000000
     2.1025      0.000000
     2.1030      0.000060
     2.1035      0.000070
     2.1040      0.000000
     2.1045      0.000000
     2.1050      0.000000
     2.1055      0.000000
     2.1060      0.000000
     2.1065      0.000000
     2.1070      0.000000
     2.1075      0.000810
     2.1080      0.000950
     2.1085      0.000710
     2.1090      0.000660
     2.1095      0.000190
     2.1100      0.000000
     2.1105      0.000000
     2.1110      0.000000
     2.1115      0.000000
     2.1120      0.000000
     2.1125      0.000010
     2.1130      0.000010
     2.1135      0.000000
     2.1140      0.000110
     2.1145      0.000310
     2.1150      0.000170
     2.1155      0.000020
     2.1160      0.000030
     2.1165      0.000570
     2.1170      0.000900
     2.1175      0.000380
     2.1180      0.000050
     2.1185      0.000000
     2.1190      0.000000
     2.1195      0.000000
     2.1200      0.000000
     2.1205      0.000000
     2.1210      0.000090
     2.1215      0.000140
     2.1220      0.000000
     2.1225      0.000000
     2.1230      0.000280
     2.1235      0.000000
     2.1240      0.000000
     2.1245      0.000000
     2.1250      0.000310
     2.1255      0.000780
     2.1260      0.000860
     2.1265      0.000800
     2.1270      0.000710
     2.1275      0.000870
     2.1280      0.000920
     2.1285      0.000960
     2.1290      0.001080
     2.1295      0.001090
     2.1300      0.000890
     2.1305      0.000340
     2.1310      0.000000
     2.1315      0.000000
     2.1320      0.000000
     2.1325      0.000000
     2.1330      0.000000
     2.1335      0.000270
     2.1340      0.000060
     2.1345      0.000000
     2.1350      0.000000
     2.1355      0.000000
     2.1360      0.000000
     2.1365      0.000000
     2.1370      0.000000
     2.1375      0.000000
     2.1380      0.000040
     2.1385      0.000440
     2.1390      0.000390
     2.1395      0.000000
     2.1400      0.000140
     2.1405      0.000460
     2.1410      0.000230
     2.1415      0.000000
     2.1420      0.000050
     2.1425      0.000330
     2.1430      0.000530
     2.1435      0.000750
     2.1440      0.000500
     2.1445      0.000170
     2.1450      0.000010
     2.1455      0.000010
     2.1460      0.000140
     2.1465      0.000000
     2.1470      0.000000
     2.1475      0.000000
     2.1480      0.000000
     2.1485      0.000000
     2.1490      0.000000
     2.1495      0.000000
     2.1500      0.000070
     2.1505      0.000090
     2.1510      0.000000
     2.1515      0.000240
     2.1520      0.000160
     2.1525      0.000000
     2.1530      0.000270
     2.1535      0.001220
     2.1540      0.000670
     2.1545      0.000000
     2.1550      0.000000
     2.1555      0.000000
     2.1560      0.000000
     2.1565      0.000000
     2.1570      0.000000
     2.1575      0.000000
     2.1580      0.000000
     2.1585      0.000000
     2.1590      0.000000
     2.1595      0.000100
     2.1600      0.000290
     2.1605      0.000120
     2.1610      0.000000
     2.1615      0.000250
     2.1620      0.000330
     2.1625      0.000000
     2.1630      0.000000
     2.1635      0.000110
     2.1640      0.000550
     2.1645      0.000770
     2.1650      0.000770
     2.1655      0.000640
     2.1660      0.000120
     2.1665      0.000000
     2.1670      0.000000
     2.1675      0.000630
     2.1680      0.000360
     2.1685      0.000090
     2.1690      0.000000
     2.1695      0.000030
     2.1700      0.000140
     2.1705      0.000050
     2.1710      0.000000
     2.1715      0.000000
     2.1720      0.000000
     2.1725      0.000000
     2.1730      0.000000
     2.1735      0.000100
     2.1740      0.000270
     2.1745      0.000100
     2.1750      0.000000
     2.1755      0.000020
     2.1760      0.000310
     2.1765      0.000460
     2.1770      0.000010
     2.1775      0.000000
     2.1780      0.000050
     2.1785      0.000280
     2.1790      0.000280
     2.1795      0.000150
     2.1800      0.000000
     2.1805      0.000000
     2.1810      0.000000
     2.1815      0.000000
     2.1820      0.000000
     2.1825      0.000000
     2.1830      0.000000
     2.1835      0.000000
     2.1840      0.000000
     2.1845      0.000000
     2.1850      0.000000
     2.1855      0.000000
     2.1860      0.000130
     2.1865      0.000070
     2.1870      0.000000
     2.1875      0.000000
     2.1880      0.000000
     2.1885      0.000000
     2.1890      0.000010
     2.1895      0.000080
     2.1900      0.000000
     2.1905      0.000000
     2.1910      0.000000
     2.1915      0.000000
     2.1920      0.000110
     2.1925      0.000170
     2.1930      0.000190
     2.1935      0.000440
     2.1940      0.000450
     2.1945      0.000050
     2.1950      0.000000
     2.1955      0.000000
     2.1960      0.000040
     2.1965      0.000240
     2.1970      0.000350
     2.1975      0.000260
     2.1980      0.000400
     2.1985      0.000300
     2.1990      0.000060
     2.1995      0.000000
     2.2000      0.000000
     2.2005      0.000000
     2.2010      0.000000
     2.2015      0.000160
     2.2020      0.000000
     2.2025      0.000000
     2.2030      0.000010
     2.2035      0.000000
     2.2040      0.000350
     2.2045      0.001030
     2.2050      0.000720
     2.2055      0.000310
     2.2060      0.000090
     2.2065      0.000000
     2.2070      0.000000
     2.2075      0.000000
     2.2080      0.000000
     2.2085      0.000000
     2.2090      0.000000
     2.2095      0.000030
     2.2100      0.000410
     2.2105      0.000030
     2.2110      0.000000
     2.2115      0.000000
     2.2120      0.000010
     2.2125      0.000390
     2.2130      0.001310
     2.2135      0.001800
     2.2140      0.001390
     2.2145      0.000950
     2.2150      0.000960
     2.2155      0.000450
     2.2160      0.000050
     2.2165      0.000210
     2.2170      0.000660
     2.2175      0.000560
     2.2180      0.000880
     2.2185      0.001070
     2.2190      0.000000
     2.2195      0.000000
     2.2200      0.000000
     2.2205      0.000020
     2.2210      0.000100
     2.2215      0.000120
     2.2220      0.000000
     2.2225      0.000000
     2.2230      0.000000
     2.2235      0.000000
     2.2240      0.000000
     2.2245      0.000000
     2.2250      0.000000
     2.2255      0.000000
     2.2260      0.000000
     2.2265      0.000000
     2.2270      0.000000
     2.2275      0.000000
     2.2280      0.000000
     2.2285      0.000000
     2.2290      0.000000
     2.2295      0.000000
     2.2300      0.000000
     2.2305      0.000000
     2.2310      0.000060
     2.2315      0.000280
     2.2320      0.000450
     2.2325      0.000540
     2.2330      0.000510
     2.2335      0.000390
     2.2340      0.000210
     2.2345      0.000080
     2.2350      0.000140
     2.2355      0.000350
     2.2360      0.000200
     2.2365      0.000030
     2.2370      0.000000
     2.2375      0.000000
     2.2380      0.000000
     2.2385      0.000000
     2.2390      0.000000
     2.2395      0.000000
     2.2400      0.000000
     2.2405      0.000000
     2.2410      0.000000
     2.2415      0.000390
     2.2420      0.000190
     2.2425      0.000000
     2.2430      0.000030
     2.2435      0.000330
     2.2440      0.000690
     2.2445      0.000100
     2.2450      0.000150
     2.2455      0.000630
     2.2460      0.000690
     2.2465      0.000550
     2.2470      0.000240
     2.2475      0.000000
     2.2480      0.000040
     2.2485      0.000320
     2.2490      0.000520
     2.2495      0.000220
     2.2500      0.000310
     2.2505      0.001060
     2.2510      0.001360
     2.2515      0.000810
     2.2520      0.000180
     2.2525      0.000080
     2.2530      0.000040
     2.2535      0.000000
     2.2540      0.000000
     2.2545      0.000000
     2.2550      0.000000
     2.2555      0.000110
     2.2560      0.000340
     2.2565      0.000270
     2.2570      0.000180
     2.2575      0.000130
     2.2580      0.000330
     2.2585      0.000640
     2.2590      0.000150
     2.2595      0.000010
     2.2600      0.000000
     2.2605      0.000000
     2.2610      0.000000
     2.2615      0.000000
     2.2620      0.000060
     2.2625      0.000000
     2.2630      0.000000
     2.2635      0.000000
     2.2640      0.000000
     2.2645      0.000000
     2.2650      0.000000
     2.2655      0.000000
     2.2660      0.000000
     2.2665      0.000000
     2.2670      0.000030
     2.2675      0.000400
     2.2680      0.000550
     2.2685      0.000200
     2.2690      0.000000
     2.2695      0.000000
     2.2700      0.000000
     2.2705      0.000000
     2.2710      0.000000
     2.2715      0.000000
     2.2720      0.000100
     2.2725      0.000760
     2.2730      0.000920
     2.2735      0.000270
     2.2740      0.000000
     2.2745      0.000040
     2.2750      0.000290
     2.2755      0.000430
     2.2760      0.000600
     2.2765      0.000530
     2.2770      0.000290
     2.2775      0.000120
     2.2780      0.000000
     2.2785      0.000130
     2.2790      0.000780
     2.2795      0.000640
     2.2800      0.000140
     2.2805      0.000130
     2.2810      0.000000
     2.2815      0.000000
     2.2820      0.000020
     2.2825      0.000250
     2.2830      0.000900
     2.2835      0.000980
     2.2840      0.000490
     2.2845      0.000080
     2.2850      0.000070
     2.2855      0.000010
     2.2860      0.000170
     2.2865      0.001000
     2.2870      0.001600
     2.2875      0.001730
     2.2880      0.001810
     2.2885      0.001980
     2.2890      0.001790
     2.2895      0.000750
     2.2900      0.000020
     2.2905      0.000160
     2.2910      0.000570
     2.2915      0.000640
     2.2920      0.000240
     2.2925      0.000520
     2.2930      0.001010
     2.2935      0.000950
     2.2940      0.001420
     2.2945      0.001770
     2.2950      0.001450
     2.2955      0.001090
     2.2960      0.000890
     2.2965      0.001190
     2.2970      0.001560
     2.2975      0.001330
     2.2980      0.000660
     2.2985      0.000140
     2.2990      0.000080
     2.2995      0.000210
     2.3000      0.000570
     2.3005      0.001020
     2.3010      0.001080
     2.3015      0.001180
     2.3020      0.001330
     2.3025      0.001320
     2.3030      0.001730
     2.3035      0.002430
     2.3040      0.002740
     2.3045      0.002620
     2.3050      0.002250
     2.3055      0.002140
     2.3060      0.002540
     2.3065      0.002770
     2.3070      0.002810
     2.3075      0.003070
     2.3080      0.003170
     2.3085      0.003030
     2.3090      0.003060
     2.3095      0.003210
     2.3100      0.003090
     2.3105      0.002550
     2.3110      0.002720
     2.3115      0.003890
     2.3120      0.004090
     2.3125      0.003390
     2.3130      0.003700
     2.3135      0.004710
     2.3140      0.004960
     2.3145      0.004720
     2.3150      0.005120
     2.3155      0.005880
     2.3160      0.006470
     2.3165      0.006850
     2.3170      0.007090
     2.3175      0.007780
     2.3180      0.008550
     2.3185      0.008650
     2.3190      0.009170
     2.3195      0.010690
     2.3200      0.012170
     2.3205      0.013320
     2.3210      0.014620
     2.3215      0.015740
     2.3220      0.016320
     2.3225      0.016980
     2.3230      0.018100
     2.3235      0.019110
     2.3240      0.019740
     2.3245      0.020550
     2.3250      0.021300
     2.3255      0.021220
     2.3260      0.020390
     2.3265      0.019490
     2.3270      0.019650
     2.3275      0.019930
     2.3280      0.018450
     2.3285      0.017130
     2.3290      0.016580
     2.3295      0.015970
     2.3300      0.015730
     2.3305      0.015150
     2.3310      0.013890
     2.3315      0.012750
     2.3320      0.011870
     2.3325      0.011160
     2.3330      0.010730
     2.3335      0.010320
     2.3340      0.009630
     2.3345      0.008750
     2.3350      0.007870
     2.3355      0.007370
     2.3360      0.007530
     2.3365      0.007640
     2.3370      0.007050
     2.3375      0.006490
     2.3380      0.006320
     2.3385      0.005930
     2.3390      0.005470
     2.3395      0.005450
     2.3400      0.005530
     2.3405      0.004990
     2.3410      0.004650
     2.3415      0.005240
     2.3420      0.005830
     2.3425      0.005640
     2.3430      0.005030
     2.3435      0.004510
     2.3440      0.004250
     2.3445      0.004090
     2.3450      0.003810
     2.3455      0.003740
     2.3460      0.003770
     2.3465      0.003510
     2.3470      0.003470
     2.3475      0.003630
     2.3480      0.003590
     2.3485      0.003170
     2.3490      0.002960
     2.3495      0.003350
     2.3500      0.003650
     2.3505      0.003520
     2.3510      0.003240
     2.3515      0.002990
     2.3520      0.002680
     2.3525      0.002510
     2.3530      0.002710
     2.3535      0.002780
     2.3540      0.002410
     2.3545      0.002680
     2.3550      0.003470
     2.3555      0.003270
     2.3560      0.003030
     2.3565      0.003160
     2.3570      0.003000
     2.3575      0.002680
     2.3580      0.002530
     2.3585      0.002430
     2.3590      0.002060
     2.3595      0.001410
     2.3600      0.000950
     2.3605      0.001180
     2.3610      0.001750
     2.3615      0.001940
     2.3620      0.002050
     2.3625      0.002000
     2.3630      0.001600
     2.3635      0.001250
     2.3640      0.000510
     2.3645      0.000090
     2.3650      0.000360
     2.3655      0.000920
     2.3660      0.001270
     2.3665      0.001370
     2.3670      0.001460
     2.3675      0.001640
     2.3680      0.001990
     2.3685      0.002350
     2.3690      0.002480
     2.3695      0.002220
     2.3700      0.002270
     2.3705      0.002450
     2.3710      0.001970
     2.3715      0.001630
     2.3720      0.002030
     2.3725      0.002300
     2.3730      0.002050
     2.3735      0.002030
     2.3740      0.002230
     2.3745      0.001830
     2.3750      0.001860
     2.3755      0.002450
     2.3760      0.002020
     2.3765      0.001950
     2.3770      0.002250
     2.3775      0.002080
     2.3780      0.001540
     2.3785      0.001180
     2.3790      0.001490
     2.3795      0.002180
     2.3800      0.002330
     2.3805      0.001860
     2.3810      0.001860
     2.3815      0.002140
     2.3820      0.002250
     2.3825      0.002160
     2.3830      0.002050
     2.3835      0.002260
     2.3840      0.002200
     2.3845      0.001610
     2.3850      0.001070
     2.3855      0.001190
     2.3860      0.001870
     2.3865      0.002830
     2.3870      0.003240
     2.3875      0.002770
     2.3880      0.002690
     2.3885      0.002960
     2.3890      0.002860
     2.3895      0.002210
     2.3900      0.001490
     2.3905      0.001210
     2.3910      0.001440
     2.3915      0.001880
     2.3920      0.002020
     2.3925      0.001450
     2.3930      0.001240
     2.3935      0.001680
     2.3940      0.002020
     2.3945      0.002380
     2.3950      0.002820
     2.3955      0.002970
     2.3960      0.002820
     2.3965      0.002890
     2.3970      0.003320
     2.3975      0.003480
     2.3980      0.003550
     2.3985      0.004010
     2.3990      0.004120
     2.3995      0.003670
     2.4000      0.002950
     2.4005      0.002460
     2.4010      0.002480
     2.4015      0.002820
     2.4020      0.002800
     2.4025      0.002100
     2.4030      0.001520
     2.4035      0.001790
     2.4040      0.002270
     2.4045      0.002460
     2.4050      0.002280
     2.4055      0.001940
     2.4060      0.001580
     2.4065      0.001330
     2.4070      0.001520
     2.4075      0.002470
     2.4080      0.002750
     2.4085      0.002210
     2.4090      0.002060
     2.4095      0.002080
     2.4100      0.002180
     2.4105      0.002390
     2.4110      0.002560
     2.4115      0.002420
     2.4120      0.002610
     2.4125      0.002720
     2.4130      0.002550
     2.4135      0.002630
     2.4140      0.002690
     2.4145      0.003110
     2.4150      0.003870
     2.4155      0.004260
     2.4160      0.003710
     2.4165      0.003200
     2.4170      0.003420
     2.4175      0.003730
     2.4180      0.003980
     2.4185      0.004040
     2.4190      0.003800
     2.4195      0.003380
     2.4200      0.003090
     2.4205      0.003250
     2.4210      0.003900
     2.4215      0.004180
     2.4220      0.003620
     2.4225      0.003210
     2.4230      0.003390
     2.4235      0.003680
     2.4240      0.003700
     2.4245      0.003670
     2.4250      0.003950
     2.4255      0.004420
     2.4260      0.005090
     2.4265      0.005360
     2.4270      0.005090
     2.4275      0.004690
     2.4280      0.004510
     2.4285      0.004720
     2.4290      0.005300
     2.4295      0.005640
     2.4300      0.005210
     2.4305      0.004970
     2.4310      0.005120
     2.4315      0.005550
     2.4320      0.005870
     2.4325      0.005790
     2.4330      0.005530
     2.4335      0.005710
     2.4340      0.006030
     2.4345      0.006390
     2.4350      0.007080
     2.4355      0.007570
     2.4360      0.007480
     2.4365      0.007100
     2.4370      0.007050
     2.4375      0.007270
     2.4380      0.007200
     2.4385      0.007260
     2.4390      0.007700
     2.4395      0.008460
     2.4400      0.009120
     2.4405      0.009300
     2.4410      0.009040
     2.4415      0.008790
     2.4420      0.008260
     2.4425      0.008210
     2.4430      0.009030
     2.4435      0.009840
     2.4440      0.010040
     2.4445      0.009930
     2.4450      0.010390
     2.4455      0.011100
     2.4460      0.010990
     2.4465      0.010680
     2.4470      0.010980
     2.4475      0.011920
     2.4480      0.012930
     2.4485      0.013310
     2.4490      0.013040
     2.4495      0.013020
     2.4500      0.013170
     2.4505      0.013180
     2.4510      0.013130
     2.4515      0.013320
     2.4520      0.013970
     2.4525      0.014960
     2.4530      0.015210
     2.4535      0.014530
     2.4540      0.014070
     2.4545      0.014220
     2.4550      0.014760
     2.4555      0.015290
     2.4560      0.015670
     2.4565      0.015850
     2.4570      0.015950
     2.4575      0.016150
     2.4580      0.016260
     2.4585      0.016340
     2.4590      0.016620
     2.4595      0.017320
     2.4600      0.017530
     2.4605      0.017440
     2.4610      0.017610
     2.4615      0.017460
     2.4620      0.017050
     2.4625      0.016920
     2.4630      0.017380
     2.4635      0.017440
     2.4640      0.017560
     2.4645      0.017990
     2.4650      0.018390
     2.4655      0.018590
     2.4660      0.018640
     2.4665      0.018600
     2.4670      0.018320
     2.4675      0.017590
     2.4680      0.017200
     2.4685      0.017520
     2.4690      0.018230
     2.4695      0.018690
     2.4700      0.018890
     2.4705      0.019390
     2.4710      0.019600
     2.4715      0.019670
     2.4720      0.019950
     2.4725      0.020300
     2.4730      0.019970
     2.4735      0.019010
     2.4740      0.019290
     2.4745      0.019800
     2.4750      0.020050
     2.4755      0.020160
     2.4760      0.020340
     2.4765      0.019910
     2.4770      0.019250
     2.4775      0.019430
     2.4780      0.019910
     2.4785      0.020450
     2.4790      0.020920
     2.4795      0.021230
     2.4800      0.021370
     2.4805      0.022020
     2.4810      0.022480
     2.4815      0.022320
     2.4820      0.021720
     2.4825      0.021260
     2.4830      0.021290
     2.4835      0.021660
     2.4840      0.022000
     2.4845      0.022250
     2.4850      0.022420
     2.4855      0.022530
     2.4860      0.022590
     2.4865      0.022950
     2.4870      0.023180
     2.4875      0.023120
     2.4880      0.023010
     2.4885      0.023090
     2.4890      0.023250
     2.4895      0.023050
     2.4900      0.022630
     2.4905      0.022370
     2.4910      0.022670
     2.4915      0.023500
     2.4920      0.024240
     2.4925      0.023840
     2.4930      0.023580
     2.4935      0.023680
     2.4940      0.023530
     2.4945      0.022930
     2.4950      0.022540
     2.4955      0.023240
     2.4960      0.023790
     2.4965      0.024210
     2.4970      0.024550
     2.4975      0.024660
     2.4980      0.024180
     2.4985      0.023700
     2.4990      0.023620
     2.4995      0.023450
     2.5000      0.023290
     2.5005      0.023340
     2.5010      0.023720
     2.5015      0.023850
     2.5020      0.023890
     2.5025      0.024080
     2.5030      0.024310
     2.5035      0.024300
     2.5040      0.023790
     2.5045      0.023220
     2.5050      0.023390
     2.5055      0.023880
     2.5060      0.024180
     2.5065      0.023980
     2.5070      0.023750
     2.5075      0.023540
     2.5080      0.023200
     2.5085      0.023080
     2.5090      0.023110
     2.5095      0.022860
     2.5100      0.022170
     2.5105      0.022140
     2.5110      0.022310
     2.5115      0.022360
     2.5120      0.022250
     2.5125      0.022330
     2.5130      0.022300
     2.5135      0.021920
     2.5140      0.021640
     2.5145      0.021700
     2.5150      0.021980
     2.5155      0.021550
     2.5160      0.020840
     2.5165      0.020820
     2.5170      0.021140
     2.5175      0.021380
     2.5180      0.021290
     2.5185      0.020950
     2.5190      0.020270
     2.5195      0.019850
     2.5200      0.019940
     2.5205      0.020480
     2.5210      0.020930
     2.5215      0.020770
     2.5220      0.020190
     2.5225      0.019720
     2.5230      0.019720
     2.5235      0.020030
     2.5240      0.020040
     2.5245      0.020270
     2.5250      0.020590
     2.5255      0.020830
     2.5260      0.020850
     2.5265      0.020580
     2.5270      0.020020
     2.5275      0.019890
     2.5280      0.020230
     2.5285      0.020680
     2.5290      0.020350
     2.5295      0.019960
     2.5300      0.019640
     2.5305      0.019390
     2.5310      0.019340
     2.5315      0.019940
     2.5320      0.020180
     2.5325      0.020020
     2.5330      0.020140
     2.5335      0.020670
     2.5340      0.021170
     2.5345      0.021410
     2.5350      0.021560
     2.5355      0.021450
     2.5360      0.021330
     2.5365      0.021620
     2.5370      0.022090
     2.5375      0.022190
     2.5380      0.022340
     2.5385      0.022620
     2.5390      0.022930
     2.5395      0.022990
     2.5400      0.022870
     2.5405      0.022950
     2.5410      0.023350
     2.5415      0.023970
     2.5420      0.024010
     2.5425      0.023680
     2.5430      0.023600
     2.5435      0.023700
     2.5440      0.023820
     2.5445      0.024010
     2.5450      0.024750
     2.5455      0.025290
     2.5460      0.025510
     2.5465      0.025570
     2.5470      0.026190
     2.5475      0.026860
     2.5480      0.027460
     2.5485      0.027900
     2.5490      0.028130
     2.5495      0.028350
     2.5500      0.029500
     2.5505      0.030340
     2.5510      0.030460
     2.5515      0.029910
     2.5520      0.030030
     2.5525      0.030970
     2.5530      0.032060
     2.5535      0.032850
     2.5540      0.033060
     2.5545      0.033130
     2.5550      0.033750
     2.5555      0.034500
     2.5560      0.035200
     2.5565      0.035750
     2.5570      0.036180
     2.5575      0.036650
     2.5580      0.037100
     2.5585      0.037420
     2.5590      0.037410
     2.5595      0.037710
     2.5600      0.038650
     2.5605      0.039920
     2.5610      0.041240
     2.5615      0.042300
     2.5620      0.042770
     2.5625      0.042920
     2.5630      0.043110
     2.5635      0.043590
     2.5640      0.044290
     2.5645      0.044690
     2.5650      0.045080
     2.5655      0.045470
     2.5660      0.045800
     2.5665      0.045980
     2.5670      0.046410
     2.5675      0.046860
     2.5680      0.047240
     2.5685      0.047480
     2.5690      0.047590
     2.5695      0.047360
     2.5700      0.047280
     2.5705      0.047740
     2.5710      0.049060
     2.5715      0.050060
     2.5720      0.050690
     2.5725      0.050830
     2.5730      0.050410
     2.5735      0.049960
     2.5740      0.050300
     2.5745      0.050600
     2.5750      0.050650
     2.5755      0.050640
     2.5760      0.051440
     2.5765      0.051830
     2.5770      0.051710
     2.5775      0.051130
     2.5780      0.050470
     2.5785      0.049800
     2.5790      0.049430
     2.5795      0.049490
     2.5800      0.049980
     2.5805      0.050030
     2.5810      0.049620
     2.5815      0.049220
     2.5820      0.049140
     2.5825      0.049300
     2.5830      0.049220
     2.5835      0.048980
     2.5840      0.048600
     2.5845      0.048040
     2.5850      0.047940
     2.5855      0.048100
     2.5860      0.048160
     2.5865      0.047820
     2.5870      0.047060
     2.5875      0.046210
     2.5880      0.045610
     2.5885      0.045290
     2.5890      0.045060
     2.5895      0.044280
     2.5900      0.043710
     2.5905      0.043440
     2.5910      0.043470
     2.5915      0.043380
     2.5920      0.043400
     2.5925      0.043370
     2.5930      0.043140
     2.5935      0.042430
     2.5940      0.041760
     2.5945      0.041650
     2.5950      0.042030
     2.5955      0.042630
     2.5960      0.042700
     2.5965      0.042550
     2.5970      0.042140
     2.5975      0.041460
     2.5980      0.040660
     2.5985      0.040030
     2.5990      0.039540
     2.5995      0.039300
     2.6000      0.039670
     2.6005      0.040090
     2.6010      0.040220
     2.6015      0.040130
     2.6020      0.040060
     2.6025      0.040310
     2.6030      0.040600
     2.6035      0.040750
     2.6040      0.040620
     2.6045      0.040190
     2.6050      0.039550
     2.6055      0.039040
     2.6060      0.038940
     2.6065      0.039720
     2.6070      0.040080
     2.6075      0.040290
     2.6080      0.040560
     2.6085      0.041260
     2.6090      0.041560
     2.6095      0.041650
     2.6100      0.041660
     2.6105      0.041750
     2.6110      0.042000
     2.6115      0.042070
     2.6120      0.041900
     2.6125      0.041490
     2.6130      0.041680
     2.6135      0.042010
     2.6140      0.042520
     2.6145      0.043250
     2.6150      0.044320
     2.6155      0.044880
     2.6160      0.044900
     2.6165      0.044370
     2.6170      0.043880
     2.6175      0.044380
     2.6180      0.045460
     2.6185      0.046790
     2.6190      0.047380
     2.6195      0.047990
     2.6200      0.048810
     2.6205      0.049930
     2.6210      0.051140
     2.6215      0.052300
     2.6220      0.053130
     2.6225      0.053540
     2.6230      0.053480
     2.6235      0.053910
     2.6240      0.054820
     2.6245      0.056090
     2.6250      0.057290
     2.6255      0.058080
     2.6260      0.058540
     2.6265      0.058810
     2.6270      0.059280
     2.6275      0.060290
     2.6280      0.061590
     2.6285      0.063090
     2.6290      0.064730
     2.6295      0.066510
     2.6300      0.068190
     2.6305      0.069640
     2.6310      0.070610
     2.6315      0.071520
     2.6320      0.072590
     2.6325      0.073950
     2.6330      0.075880
     2.6335      0.077580
     2.6340      0.078820
     2.6345      0.079740
     2.6350      0.081130
     2.6355      0.083330
     2.6360      0.085960
     2.6365      0.088820
     2.6370      0.091330
     2.6375      0.093320
     2.6380      0.095320
     2.6385      0.097460
     2.6390      0.099520
     2.6395      0.101660
     2.6400      0.103990
     2.6405      0.106530
     2.6410      0.109050
     2.6415      0.111770
     2.6420      0.114620
     2.6425      0.117530
     2.6430      0.120450
     2.6435      0.123710
     2.6440      0.127270
     2.6445      0.131080
     2.6450      0.134450
     2.6455      0.137500
     2.6460      0.140570
     2.6465      0.144070
     2.6470      0.148160
     2.6475      0.152110
     2.6480      0.155920
     2.6485      0.159620
     2.6490      0.163840
     2.6495      0.168140
     2.6500      0.172370
     2.6505      0.176190
     2.6510      0.180330
     2.6515      0.184970
     2.6520      0.190040
     2.6525      0.194810
     2.6530      0.199050
     2.6535      0.203600
     2.6540      0.208870
     2.6545      0.214820
     2.6550      0.219860
     2.6555      0.224620
     2.6560      0.229610
     2.6565      0.236100
     2.6570      0.242170
     2.6575      0.247750
     2.6580      0.252710
     2.6585      0.258190
     2.6590      0.263820
     2.6595      0.269510
     2.6600      0.275200
     2.6605      0.280950
     2.6610      0.286490
     2.6615      0.291710
     2.6620      0.296610
     2.6625      0.301100
     2.6630      0.304980
     2.6635      0.307980
     2.6640      0.310680
     2.6645      0.313360
     2.6650      0.315820
     2.6655      0.317500
     2.6660      0.319530
     2.6665      0.322450
     2.6670      0.326350
     2.6675      0.331100
     2.6680      0.335860
     2.6685      0.340620
     2.6690      0.345380
     2.6695      0.350790
     2.6700      0.355250
     2.6705      0.358640
     2.6710      0.360580
     2.6715      0.363400
     2.6720      0.366330
     2.6725      0.369170
     2.6730      0.371260
     2.6735      0.373220
     2.6740      0.374900
     2.6745      0.376190
     2.6750      0.376870
     2.6755      0.376590
     2.6760      0.375300
     2.6765      0.372620
     2.6770      0.369530
     2.6775      0.366030
     2.6780      0.362000
     2.6785      0.356430
     2.6790      0.349900
     2.6795      0.342700
     2.6800      0.334960
     2.6805      0.326850
     2.6810      0.318430
     2.6815      0.309630
     2.6820      0.300060
     2.6825      0.290110
     2.6830      0.279780
     2.6835      0.268990
     2.6840      0.257680
     2.6845      0.246910
     2.6850      0.236480
     2.6855      0.225850
     2.6860      0.214470
     2.6865      0.203410
     2.6870      0.193060
     2.6875      0.183270
     2.6880      0.172970
     2.6885      0.162480
     2.6890      0.152340
     2.6895      0.143540
     2.6900      0.135240
     2.6905      0.127230
     2.6910      0.118910
     2.6915      0.111270
     2.6920      0.104230
     2.6925      0.097870
     2.6930      0.091350
     2.6935      0.085210
     2.6940      0.079580
     2.6945      0.074330
     2.6950      0.068710
     2.6955      0.063110
     2.6960      0.058040
     2.6965      0.053620
     2.6970      0.049600
     2.6975      0.045990
     2.6980      0.043540
     2.6985      0.041410
     2.6990      0.039320
     2.6995      0.036900
     2.7000      0.034320
     2.7005      0.031930
     2.7010      0.029850
     2.7015      0.028320
     2.7020      0.026970
     2.7025      0.025730
     2.7030      0.024560
     2.7035      0.023390
     2.7040      0.022200
     2.7045      0.020970
     2.7050      0.020120
     2.7055      0.019460
     2.7060      0.018820
     2.7065      0.017450
     2.7070      0.015890
     2.7075      0.014780
     2.7080      0.014670
     2.7085      0.014890
     2.7090      0.014430
     2.7095      0.013280
     2.7100      0.012130
     2.7105      0.011910
     2.7110      0.011900
     2.7115      0.011270
     2.7120      0.009460
     2.7125      0.007940
     2.7130      0.007110
     2.7135      0.007540
     2.7140      0.007950
     2.7145      0.008350
     2.7150      0.008740
     2.7155      0.008780
     2.7160      0.008530
     2.7165      0.007880
     2.7170      0.007140
     2.7175      0.006370
     2.7180      0.005590
     2.7185      0.004900
     2.7190      0.004480
     2.7195      0.004340
     2.7200      0.004700
     2.7205      0.005190
     2.7210      0.005620
     2.7215      0.005860
     2.7220      0.006140
     2.7225      0.006390
     2.7230      0.006540
     2.7235      0.005710
     2.7240      0.004930
     2.7245      0.004380
     2.7250      0.004720
     2.7255      0.004780
     2.7260      0.004780
     2.7265      0.004810
     2.7270      0.005350
     2.7275      0.005730
     2.7280      0.005840
     2.7285      0.005780
     2.7290      0.005750
     2.7295      0.005720
     2.7300      0.005580
     2.7305      0.005140
     2.7310      0.004590
     2.7315      0.004050
     2.7320      0.004310
     2.7325      0.004770
     2.7330      0.005300
     2.7335      0.005640
     2.7340      0.005880
     2.7345      0.006030
     2.7350      0.005840
     2.7355      0.005520
     2.7360      0.005080
     2.7365      0.004410
     2.7370      0.004140
     2.7375      0.004200
     2.7380      0.004730
     2.7385      0.005580
     2.7390      0.006530
     2.7395      0.007550
     2.7400      0.007360
     2.7405      0.006920
     2.7410      0.006330
     2.7415      0.006470
     2.7420      0.006320
     2.7425      0.005900
     2.7430      0.005000
     2.7435      0.004730
     2.7440      0.004990
     2.7445      0.006010
     2.7450      0.006550
     2.7455      0.006440
     2.7460      0.005360
     2.7465      0.004390
     2.7470      0.004080
     2.7475      0.004570
     2.7480      0.004630
     2.7485      0.004210
     2.7490      0.003440
     2.7495      0.003420
     2.7500      0.003770
     2.7505      0.004350
     2.7510      0.005050
     2.7515      0.005600
     2.7520      0.005920
     2.7525      0.005740
     2.7530      0.005530
     2.7535      0.005410
     2.7540      0.005520
     2.7545      0.005780
     2.7550      0.005840
     2.7555      0.005530
     2.7560      0.004480
     2.7565      0.003610
     2.7570      0.003020
     2.7575      0.003820
     2.7580      0.004740
     2.7585      0.005700
     2.7590      0.005490
     2.7595      0.005130
     2.7600      0.004770
     2.7605      0.005170
     2.7610      0.005940
     2.7615      0.006870
     2.7620      0.007680
     2.7625      0.007930
     2.7630      0.007920
     2.7635      0.007750
     2.7640      0.007750
     2.7645      0.007780
     2.7650      0.007750
     2.7655      0.007620
     2.7660      0.007380
     2.7665      0.006980
     2.7670      0.006420
     2.7675      0.006090
     2.7680      0.006120
     2.7685      0.006740
     2.7690      0.007340
     2.7695      0.007860
     2.7700      0.008240
     2.7705      0.008610
     2.7710      0.008980
     2.7715      0.009490
     2.7720      0.010070
     2.7725      0.010690
     2.7730      0.010540
     2.7735      0.010160
     2.7740      0.009590
     2.7745      0.009170
     2.7750      0.008860
     2.7755      0.008750
     2.7760      0.009760
     2.7765      0.011170
     2.7770      0.012700
     2.7775      0.013350
     2.7780      0.013380
     2.7785      0.013030
     2.7790      0.012480
     2.7795      0.012330
     2.7800      0.012530
     2.7805      0.013480
     2.7810      0.014520
     2.7815      0.015560
     2.7820      0.016380
     2.7825      0.017150
     2.7830      0.017790
     2.7835      0.018020
     2.7840      0.018110
     2.7845      0.018230
     2.7850      0.018630
     2.7855      0.018990
     2.7860      0.019430
     2.7865      0.020230
     2.7870      0.021120
     2.7875      0.021890
     2.7880      0.022140
     2.7885      0.022450
     2.7890      0.022860
     2.7895      0.023520
     2.7900      0.024600
     2.7905      0.025870
     2.7910      0.027250
     2.7915      0.027850
     2.7920      0.028150
     2.7925      0.028420
     2.7930      0.029220
     2.7935      0.030270
     2.7940      0.031430
     2.7945      0.032510
     2.7950      0.033430
     2.7955      0.033810
     2.7960      0.034090
     2.7965      0.034440
     2.7970      0.035290
     2.7975      0.036290
     2.7980      0.037440
     2.7985      0.038950
     2.7990      0.040300
     2.7995      0.041470
     2.8000      0.041980
     2.8005      0.042860
     2.8010      0.043980
     2.8015      0.045380
     2.8020      0.046340
     2.8025      0.047030
     2.8030      0.047930
     2.8035      0.049040
     2.8040      0.050270
     2.8045      0.050980
     2.8050      0.051770
     2.8055      0.052660
     2.8060      0.054330
     2.8065      0.056120
     2.8070      0.058020
     2.8075      0.059680
     2.8080      0.061030
     2.8085      0.062020
     2.8090      0.062640
     2.8095      0.063430
     2.8100      0.064490
     2.8105      0.065780
     2.8110      0.066990
     2.8115      0.068040
     2.8120      0.068880
     2.8125      0.069860
     2.8130      0.071150
     2.8135      0.072930
     2.8140      0.074750
     2.8145      0.076350
     2.8150      0.077820
     2.8155      0.079280
     2.8160      0.080850
     2.8165      0.082170
     2.8170      0.083290
     2.8175      0.084060
     2.8180      0.084940
     2.8185      0.085970
     2.8190      0.087630
     2.8195      0.089280
     2.8200      0.090920
     2.8205      0.092180
     2.8210      0.093610
     2.8215      0.095210
     2.8220      0.096810
     2.8225      0.098110
     2.8230      0.099020
     2.8235      0.099240
     2.8240      0.099400
     2.8245      0.099620
     2.8250      0.100890
     2.8255      0.102630
     2.8260      0.104940
     2.8265      0.106780
     2.8270      0.108260
     2.8275      0.108930
     2.8280      0.109710
     2.8285      0.110630
     2.8290      0.112220
     2.8295      0.113750
     2.8300      0.115240
     2.8305      0.116570
     2.8310      0.117750
     2.8315      0.118770
     2.8320      0.119120
     2.8325      0.119650
     2.8330      0.120530
     2.8335      0.121960
     2.8340      0.123180
     2.8345      0.123610
     2.8350      0.123980
     2.8355      0.124570
     2.8360      0.126220
     2.8365      0.127670
     2.8370      0.128960
     2.8375      0.129820
     2.8380      0.131030
     2.8385      0.132550
     2.8390      0.133660
     2.8395      0.134310
     2.8400      0.134340
     2.8405      0.134310
     2.8410      0.134430
     2.8415      0.134880
     2.8420      0.135660
     2.8425      0.136580
     2.8430      0.137590
     2.8435      0.138370
     2.8440      0.138990
     2.8445      0.139460
     2.8450      0.139980
     2.8455      0.140540
     2.8460      0.141310
     2.8465      0.142160
     2.8470      0.143130
     2.8475      0.143590
     2.8480      0.143790
     2.8485      0.143590
     2.8490      0.143720
     2.8495      0.144070
     2.8500      0.144920
     2.8505      0.145990
     2.8510      0.147240
     2.8515      0.148590
     2.8520      0.149480
     2.8525      0.149770
     2.8530      0.149610
     2.8535      0.149680
     2.8540      0.150510
     2.8545      0.151570
     2.8550      0.152610
     2.8555      0.152980
     2.8560      0.152910
     2.8565      0.152530
     2.8570      0.152110
     2.8575      0.152050
     2.8580      0.152460
     2.8585      0.153260
     2.8590      0.154170
     2.8595      0.155220
     2.8600      0.156360
     2.8605      0.157530
     2.8610      0.158520
     2.8615      0.159440
     2.8620      0.160300
     2.8625      0.160880
     2.8630      0.161470
     2.8635      0.162070
     2.8640      0.163230
     2.8645      0.164540
     2.8650      0.165930
     2.8655      0.166470
     2.8660      0.166530
     2.8665      0.166190
     2.8670      0.166460
     2.8675      0.167400
     2.8680      0.168090
     2.8685      0.168560
     2.8690      0.168620
     2.8695      0.169140
     2.8700      0.169920
     2.8705      0.171110
     2.8710      0.172870
     2.8715      0.175100
     2.8720      0.176780
     2.8725      0.177590
     2.8730      0.176900
     2.8735      0.176800
     2.8740      0.177200
     2.8745      0.179100
     2.8750      0.180780
     2.8755      0.182290
     2.8760      0.183630
     2.8765      0.185080
     2.8770      0.186710
     2.8775      0.188270
     2.8780      0.189790
     2.8785      0.191250
     2.8790      0.192620
     2.8795      0.193920
     2.8800      0.195730
     2.8805      0.197620
     2.8810      0.199630
     2.8815      0.201260
     2.8820      0.202820
     2.8825      0.204480
     2.8830      0.205680
     2.8835      0.206560
     2.8840      0.207350
     2.8845      0.208760
     2.8850      0.211130
     2.8855      0.213540
     2.8860      0.215910
     2.8865      0.218080
     2.8870      0.220300
     2.8875      0.222560
     2.8880      0.224430
     2.8885      0.226520
     2.8890      0.229050
     2.8895      0.231460
     2.8900      0.233690
     2.8905      0.234980
     2.8910      0.236570
     2.8915      0.238420
     2.8920      0.241260
     2.8925      0.244430
     2.8930      0.248170
     2.8935      0.251770
     2.8940      0.255200
     2.8945      0.257150
     2.8950      0.259110
     2.8955      0.261080
     2.8960      0.264160
     2.8965      0.267420
     2.8970      0.270540
     2.8975      0.273510
     2.8980      0.276370
     2.8985      0.280040
     2.8990      0.283850
     2.8995      0.287840
     2.9000      0.291350
     2.9005      0.294640
     2.9010      0.297590
     2.9015      0.300730
     2.9020      0.304080
     2.9025      0.308280
     2.9030      0.312810
     2.9035      0.317960
     2.9040      0.322580
     2.9045      0.326870
     2.9050      0.330280
     2.9055      0.334160
     2.9060      0.338880
     2.9065      0.344000
     2.9070      0.349130
     2.9075      0.353040
     2.9080      0.356730
     2.9085      0.360190
     2.9090      0.364210
     2.9095      0.368540
     2.9100      0.373590
     2.9105      0.378690
     2.9110      0.383840
     2.9115      0.388730
     2.9120      0.393860
     2.9125      0.399540
     2.9130      0.405150
     2.9135      0.410680
     2.9140      0.415140
     2.9145      0.419790
     2.9150      0.424740
     2.9155      0.429990
     2.9160      0.435240
     2.9165      0.439840
     2.9170      0.444440
     2.9175      0.449040
     2.9180      0.454000
     2.9185      0.459030
     2.9190      0.464070
     2.9195      0.469200
     2.9200      0.474400
     2.9205      0.480000
     2.9210      0.485600
     2.9215      0.491100
     2.9220      0.496130
     2.9225      0.500880
     2.9230      0.505570
     2.9235      0.510150
     2.9240      0.514520
     2.9245      0.518940
     2.9250      0.523410
     2.9255      0.529060
     2.9260      0.534630
     2.9265      0.540030
     2.9270      0.544670
     2.9275      0.548940
     2.9280      0.551970
     2.9285      0.554930
     2.9290      0.557790
     2.9295      0.562350
     2.9300      0.567380
     2.9305      0.571960
     2.9310      0.575680
     2.9315      0.578360
     2.9320      0.580840
     2.9325      0.583240
     2.9330      0.585530
     2.9335      0.588480
     2.9340      0.592170
     2.9345      0.596260
     2.9350      0.600220
     2.9355      0.602920
     2.9360      0.605300
     2.9365      0.607370
     2.9370      0.609330
     2.9375      0.611290
     2.9380      0.613390
     2.9385      0.615130
     2.9390      0.616520
     2.9395      0.617220
     2.9400      0.618030
     2.9405      0.619950
     2.9410      0.622250
     2.9415      0.624920
     2.9420      0.626530
     2.9425      0.627820
     2.9430      0.628570
     2.9435      0.629310
     2.9440      0.630040
     2.9445      0.630160
     2.9450      0.630170
     2.9455      0.630310
     2.9460      0.630690
     2.9465      0.631320
     2.9470      0.631360
     2.9475      0.631260
     2.9480      0.631090
     2.9485      0.631070
     2.9490      0.631220
     2.9495      0.631060
     2.9500      0.630760
     2.9505      0.630020
     2.9510      0.628990
     2.9515      0.627540
     2.9520      0.626220
     2.9525      0.625040
     2.9530      0.625560
     2.9535      0.626230
     2.9540      0.627150
     2.9545      0.627010
     2.9550      0.626430
     2.9555      0.626640
     2.9560      0.627250
     2.9565      0.628670
     2.9570      0.628950
     2.9575      0.628570
     2.9580      0.627410
     2.9585      0.626480
     2.9590      0.626340
     2.9595      0.626050
     2.9600      0.625650
     2.9605      0.624490
     2.9610      0.623390
     2.9615      0.622950
     2.9620      0.623110
     2.9625      0.623850
     2.9630      0.624200
     2.9635      0.624410
     2.9640      0.624180
     2.9645      0.624130
     2.9650      0.624330
     2.9655      0.624360
     2.9660      0.624320
     2.9665      0.623420
     2.9670      0.622580
     2.9675      0.621870
     2.9680      0.621930
     2.9685      0.622440
     2.9690      0.623420
     2.9695      0.624470
     2.9700      0.625640
     2.9705      0.626820
     2.9710      0.628030
     2.9715      0.628890
     2.9720      0.629630
     2.9725      0.630050
     2.9730      0.630240
     2.9735      0.630140
     2.9740      0.630400
     2.9745      0.630810
     2.9750      0.632320
     2.9755      0.633770
     2.9760      0.635080
     2.9765      0.636390
     2.9770      0.637690
     2.9775      0.638810
     2.9780      0.639670
     2.9785      0.639430
     2.9790      0.639340
     2.9795      0.639410
     2.9800      0.640600
     2.9805      0.642150
     2.9810      0.643840
     2.9815      0.645480
     2.9820      0.647010
     2.9825      0.648570
     2.9830      0.650150
     2.9835      0.652080
     2.9840      0.654180
     2.9845      0.656880
     2.9850      0.658990
     2.9855      0.660410
     2.9860      0.660840
     2.9865      0.661000
     2.9870      0.663370
     2.9875      0.665790
     2.9880      0.668330
     2.9885      0.669350
     2.9890      0.669310
     2.9895      0.671060
     2.9900      0.673320
     2.9905      0.676970
     2.9910      0.679660
     2.9915      0.680960
     2.9920      0.681930
     2.9925      0.682740
     2.9930      0.683920
     2.9935      0.685210
     2.9940      0.686790
     2.9945      0.688380
     2.9950      0.689980
     2.9955      0.690780
     2.9960      0.691390
     2.9965      0.692760
     2.9970      0.694400
     2.9975      0.696650
     2.9980      0.698670
     2.9985      0.700520
     2.9990      0.702100
     2.9995      0.703590
     3.0000      0.704790
     3.0005      0.705930
     3.0010      0.706970
     3.0015      0.707870
     3.0020      0.708690
     3.0025      0.709050
     3.0030      0.709270
     3.0035      0.709020
     3.0040      0.708970
     3.0045      0.709200
     3.0050      0.710090
     3.0055      0.711280
     3.0060      0.711920
     3.0065      0.712440
     3.0070      0.712600
     3.0075      0.712780
     3.0080      0.713000
     3.0085      0.712290
     3.0090      0.711200
     3.0095      0.710130
     3.0100      0.709350
     3.0105      0.709630
     3.0110      0.709370
     3.0115      0.708500
     3.0120      0.707400
     3.0125      0.706220
     3.0130      0.706190
     3.0135      0.706010
     3.0140      0.705130
     3.0145      0.704020
     3.0150      0.702650
     3.0155      0.701410
     3.0160      0.700210
     3.0165      0.698980
     3.0170      0.697750
     3.0175      0.696570
     3.0180      0.695040
     3.0185      0.693100
     3.0190      0.691210
     3.0195      0.689360
     3.0200      0.688080
     3.0205      0.686790
     3.0210      0.685310
     3.0215      0.683490
     3.0220      0.681190
     3.0225      0.678770
     3.0230      0.676290
     3.0235      0.674600
     3.0240      0.672990
     3.0245      0.671180
     3.0250      0.668980
     3.0255      0.666080
     3.0260      0.663340
     3.0265      0.660690
     3.0270      0.658440
     3.0275      0.656210
     3.0280      0.652970
     3.0285      0.649800
     3.0290      0.646770
     3.0295      0.644700
     3.0300      0.643510
     3.0305      0.641850
     3.0310      0.640040
     3.0315      0.637190
     3.0320      0.634360
     3.0325      0.631690
     3.0330      0.629160
     3.0335      0.626810
     3.0340      0.624370
     3.0345      0.621870
     3.0350      0.618940
     3.0355      0.616040
     3.0360      0.613810
     3.0365      0.611400
     3.0370      0.608620
     3.0375      0.605650
     3.0380      0.602520
     3.0385      0.600680
     3.0390      0.599200
     3.0395      0.597240
     3.0400      0.595090
     3.0405      0.592200
     3.0410      0.589170
     3.0415      0.585940
     3.0420      0.583180
     3.0425      0.580670
     3.0430      0.579820
     3.0435      0.579200
     3.0440      0.578010
     3.0445      0.576540
     3.0450      0.574390
     3.0455      0.572250
     3.0460      0.570140
     3.0465      0.567750
     3.0470      0.565250
     3.0475      0.562710
     3.0480      0.560190
     3.0485      0.557790
     3.0490      0.555690
     3.0495      0.554180
     3.0500      0.553000
     3.0505      0.552110
     3.0510      0.550880
     3.0515      0.549550
     3.0520      0.548230
     3.0525      0.546940
     3.0530      0.545740
     3.0535      0.544300
     3.0540      0.542390
     3.0545      0.540200
     3.0550      0.537780
     3.0555      0.536320
     3.0560      0.535180
     3.0565      0.534720
     3.0570      0.534170
     3.0575      0.532960
     3.0580      0.531960
     3.0585      0.531340
     3.0590      0.530720
     3.0595      0.530100
     3.0600      0.528860
     3.0605      0.527420
     3.0610      0.527030
     3.0615      0.526760
     3.0620      0.526850
     3.0625      0.526770
     3.0630      0.526360
     3.0635      0.526020
     3.0640      0.525740
     3.0645      0.525130
     3.0650      0.524370
     3.0655      0.524100
     3.0660      0.523990
     3.0665      0.524860
     3.0670      0.525540
     3.0675      0.525720
     3.0680      0.525670
     3.0685      0.525370
     3.0690      0.525210
     3.0695      0.525130
     3.0700      0.524930
     3.0705      0.524700
     3.0710      0.524980
     3.0715      0.525320
     3.0720      0.525930
     3.0725      0.526250
     3.0730      0.526050
     3.0735      0.525720
     3.0740      0.525300
     3.0745      0.525220
     3.0750      0.525290
     3.0755      0.525880
     3.0760      0.526560
     3.0765      0.527700
     3.0770      0.528740
     3.0775      0.529460
     3.0780      0.530100
     3.0785      0.530620
     3.0790      0.531260
     3.0795      0.531980
     3.0800      0.532570
     3.0805      0.533120
     3.0810      0.534380
     3.0815      0.535730
     3.0820      0.537390
     3.0825      0.538820
     3.0830      0.539620
     3.0835      0.540210
     3.0840      0.540520
     3.0845      0.540970
     3.0850      0.541490
     3.0855      0.543060
     3.0860      0.544950
     3.0865      0.547370
     3.0870      0.549730
     3.0875      0.551130
     3.0880      0.552520
     3.0885      0.553910
     3.0890      0.555250
     3.0895      0.556510
     3.0900      0.557410
     3.0905      0.558050
     3.0910      0.559410
     3.0915      0.561020
     3.0920      0.563420
     3.0925      0.565920
     3.0930      0.568110
     3.0935      0.570260
     3.0940      0.572180
     3.0945      0.574110
     3.0950      0.576060
     3.0955      0.578050
     3.0960      0.580070
     3.0965      0.582240
     3.0970      0.584480
     3.0975      0.586680
     3.0980      0.588870
     3.0985      0.590590
     3.0990      0.592290
     3.0995      0.594020
     3.1000      0.595880
     3.1005      0.598110
     3.1010      0.600410
     3.1015      0.602810
     3.1020      0.605160
     3.1025      0.607460
     3.1030      0.609490
     3.1035      0.611420
     3.1040      0.613010
     3.1045      0.614540
     3.1050      0.616680
     3.1055      0.618960
     3.1060      0.622100
     3.1065      0.625080
     3.1070      0.627550
     3.1075      0.629710
     3.1080      0.631370
     3.1085      0.633060
     3.1090      0.634780
     3.1095      0.636490
     3.1100      0.638200
     3.1105      0.640400
     3.1110      0.642730
     3.1115      0.645260
     3.1120      0.647770
     3.1125      0.649680
     3.1130      0.651580
     3.1135      0.653420
     3.1140      0.655430
     3.1145      0.657800
     3.1150      0.660370
     3.1155      0.663180
     3.1160      0.665470
     3.1165      0.667390
     3.1170      0.668690
     3.1175      0.669740
     3.1180      0.671700
     3.1185      0.673840
     3.1190      0.676440
     3.1195      0.678950
     3.1200      0.680280
     3.1205      0.681670
     3.1210      0.683260
     3.1215      0.685130
     3.1220      0.687570
     3.1225      0.689280
     3.1230      0.690100
     3.1235      0.690660
     3.1240      0.691020
     3.1245      0.692130
     3.1250      0.693590
     3.1255      0.694670
     3.1260      0.695650
     3.1265      0.696980
     3.1270      0.698350
     3.1275      0.700430
     3.1280      0.702310
     3.1285      0.703030
     3.1290      0.703370
     3.1295      0.702670
     3.1300      0.702030
     3.1305      0.701510
     3.1310      0.701500
     3.1315      0.702040
     3.1320      0.702970
     3.1325      0.704170
     3.1330      0.705190
     3.1335      0.706120
     3.1340      0.705850
     3.1345      0.705290
     3.1350      0.703900
     3.1355      0.702450
     3.1360      0.702080
     3.1365      0.701810
     3.1370      0.702220
     3.1375      0.702540
     3.1380      0.702490
     3.1385      0.702190
     3.1390      0.701310
     3.1395      0.700230
     3.1400      0.698880
     3.1405      0.697430
     3.1410      0.695890
     3.1415      0.694030
     3.1420      0.691970
     3.1425      0.690480
     3.1430      0.689210
     3.1435      0.688820
     3.1440      0.688640
     3.1445      0.687400
     3.1450      0.686050
     3.1455      0.683250
     3.1460      0.680460
     3.1465      0.677770
     3.1470      0.675170
     3.1475      0.672930
     3.1480      0.670600
     3.1485      0.668000
     3.1490      0.665330
     3.1495      0.662530
     3.1500      0.659650
     3.1505      0.656670
     3.1510      0.653510
     3.1515      0.650200
     3.1520      0.647590
     3.1525      0.645430
     3.1530      0.643330
     3.1535      0.641250
     3.1540      0.638070
     3.1545      0.634570
     3.1550      0.631130
     3.1555      0.627700
     3.1560      0.623920
     3.1565      0.620110
     3.1570      0.615640
     3.1575      0.611280
     3.1580      0.608040
     3.1585      0.604920
     3.1590      0.602440
     3.1595      0.599700
     3.1600      0.596130
     3.1605      0.592350
     3.1610      0.588140
     3.1615      0.584390
     3.1620      0.581380
     3.1625      0.578540
     3.1630      0.575900
     3.1635      0.572490
     3.1640      0.568420
     3.1645      0.564280
     3.1650      0.560100
     3.1655      0.556480
     3.1660      0.553140
     3.1665      0.549480
     3.1670      0.545710
     3.1675      0.541910
     3.1680      0.538110
     3.1685      0.534900
     3.1690      0.531790
     3.1695      0.528430
     3.1700      0.525060
     3.1705      0.521260
     3.1710      0.517470
     3.1715      0.513880
     3.1720      0.510380
     3.1725      0.507550
     3.1730      0.504700
     3.1735      0.501750
     3.1740      0.498640
     3.1745      0.494950
     3.1750      0.491530
     3.1755      0.488770
     3.1760      0.486130
     3.1765      0.483690
     3.1770      0.481000
     3.1775      0.477930
     3.1780      0.474990
     3.1785      0.472210
     3.1790      0.469350
     3.1795      0.466410
     3.1800      0.463350
     3.1805      0.460190
     3.1810      0.457050
     3.1815      0.453930
     3.1820      0.450930
     3.1825      0.448000
     3.1830      0.445380
     3.1835      0.442890
     3.1840      0.440140
     3.1845      0.437290
     3.1850      0.434500
     3.1855      0.431720
     3.1860      0.429520
     3.1865      0.427450
     3.1870      0.425160
     3.1875      0.422850
     3.1880      0.419940
     3.1885      0.416990
     3.1890      0.414570
     3.1895      0.412170
     3.1900      0.410950
     3.1905      0.409730
     3.1910      0.408310
     3.1915      0.406850
     3.1920      0.404780
     3.1925      0.402730
     3.1930      0.400890
     3.1935      0.399090
     3.1940      0.397580
     3.1945      0.396100
     3.1950      0.394820
     3.1955      0.393530
     3.1960      0.392230
     3.1965      0.390840
     3.1970      0.389160
     3.1975      0.387420
     3.1980      0.385540
     3.1985      0.383750
     3.1990      0.382160
     3.1995      0.380700
     3.2000      0.379520
     3.2005      0.378360
     3.2010      0.377210
     3.2015      0.376090
     3.2020      0.375050
     3.2025      0.374000
     3.2030      0.372960
     3.2035      0.371660
     3.2040      0.369980
     3.2045      0.368550
     3.2050      0.367480
     3.2055      0.367040
     3.2060      0.367410
     3.2065      0.367680
     3.2070      0.367840
     3.2075      0.367550
     3.2080      0.366770
     3.2085      0.365830
     3.2090      0.364720
     3.2095      0.363840
     3.2100      0.363190
     3.2105      0.363140
     3.2110      0.363660
     3.2115      0.364300
     3.2120      0.365040
     3.2125      0.364950
     3.2130      0.364130
     3.2135      0.362990
     3.2140      0.361580
     3.2145      0.361010
     3.2150      0.361110
     3.2155      0.361500
     3.2160      0.362120
     3.2165      0.362680
     3.2170      0.363190
     3.2175      0.364070
     3.2180      0.365210
     3.2185      0.366050
     3.2190      0.366690
     3.2195      0.366860
     3.2200      0.366700
     3.2205      0.366730
     3.2210      0.366900
     3.2215      0.367580
     3.2220      0.368650
     3.2225      0.369790
     3.2230      0.370990
     3.2235      0.371640
     3.2240      0.371870
     3.2245      0.372120
     3.2250      0.372390
     3.2255      0.373250
     3.2260      0.374590
     3.2265      0.375910
     3.2270      0.377230
     3.2275      0.378110
     3.2280      0.378640
     3.2285      0.379480
     3.2290      0.380590
     3.2295      0.382330
     3.2300      0.384650
     3.2305      0.386760
     3.2310      0.388660
     3.2315      0.390230
     3.2320      0.391470
     3.2325      0.392900
     3.2330      0.394540
     3.2335      0.396280
     3.2340      0.398130
     3.2345      0.400040
     3.2350      0.402000
     3.2355      0.404180
     3.2360      0.406640
     3.2365      0.408980
     3.2370      0.411130
     3.2375      0.413100
     3.2380      0.414780
     3.2385      0.416590
     3.2390      0.418650
     3.2395      0.420790
     3.2400      0.423090
     3.2405      0.425630
     3.2410      0.428640
     3.2415      0.431840
     3.2420      0.435440
     3.2425      0.438820
     3.2430      0.441620
     3.2435      0.444250
     3.2440      0.446380
     3.2445      0.448530
     3.2450      0.450750
     3.2455      0.453120
     3.2460      0.456160
     3.2465      0.459340
     3.2470      0.463360
     3.2475      0.467350
     3.2480      0.471200
     3.2485      0.475020
     3.2490      0.478580
     3.2495      0.482140
     3.2500      0.485850
     3.2505      0.489560
     3.2510      0.493000
     3.2515      0.496440
     3.2520      0.500260
     3.2525      0.504090
     3.2530      0.508850
     3.2535      0.513690
     3.2540      0.518030
     3.2545      0.522310
     3.2550      0.526200
     3.2555      0.530030
     3.2560      0.534150
     3.2565      0.538350
     3.2570      0.541830
     3.2575      0.545090
     3.2580      0.548290
     3.2585      0.551470
     3.2590      0.555390
     3.2595      0.559680
     3.2600      0.563990
     3.2605      0.568300
     3.2610      0.572620
     3.2615      0.576950
     3.2620      0.581430
     3.2625      0.586060
     3.2630      0.590830
     3.2635      0.595770
     3.2640      0.600680
     3.2645      0.605530
     3.2650      0.610030
     3.2655      0.613900
     3.2660      0.617690
     3.2665      0.621330
     3.2670      0.625070
     3.2675      0.629150
     3.2680      0.633290
     3.2685      0.637810
     3.2690      0.642380
     3.2695      0.647390
     3.2700      0.652340
     3.2705      0.656210
     3.2710      0.660070
     3.2715      0.662980
     3.2720      0.665890
     3.2725      0.669300
     3.2730      0.672750
     3.2735      0.675650
     3.2740      0.678470
     3.2745      0.681610
     3.2750      0.684830
     3.2755      0.688970
     3.2760      0.693460
     3.2765      0.696530
     3.2770      0.698870
     3.2775      0.700220
     3.2780      0.700880
     3.2785      0.701990
     3.2790      0.703550
     3.2795      0.705220
     3.2800      0.707030
     3.2805      0.708760
     3.2810      0.710340
     3.2815      0.711760
     3.2820      0.712780
     3.2825      0.713710
     3.2830      0.714330
     3.2835      0.714890
     3.2840      0.715040
     3.2845      0.715140
     3.2850      0.714220
     3.2855      0.713310
     3.2860      0.712670
     3.2865      0.712030
     3.2870      0.711340
     3.2875      0.710650
     3.2880      0.709540
     3.2885      0.708330
     3.2890      0.707590
     3.2895      0.707030
     3.2900      0.705830
     3.2905      0.704270
     3.2910      0.702090
     3.2915      0.699390
     3.2920      0.696880
     3.2925      0.694600
     3.2930      0.692230
     3.2935      0.689700
     3.2940      0.687110
     3.2945      0.684360
     3.2950      0.681620
     3.2955      0.678950
     3.2960      0.676240
     3.2965      0.673150
     3.2970      0.670070
     3.2975      0.666060
     3.2980      0.662050
     3.2985      0.657610
     3.2990      0.653130
     3.2995      0.649300
     3.3000      0.645640
     3.3005      0.642140
     3.3010      0.638720
     3.3015      0.634730
     3.3020      0.630360
     3.3025      0.626010
     3.3030      0.621670
     3.3035      0.617580
     3.3040      0.613880
     3.3045      0.609900
     3.3050      0.605210
     3.3055      0.600490
     3.3060      0.595630
     3.3065      0.590890
     3.3070      0.587590
     3.3075      0.584300
     3.3080      0.580460
     3.3085      0.576590
     3.3090      0.572060
     3.3095      0.567420
     3.3100      0.563220
     3.3105      0.559180
     3.3110      0.554900
     3.3115      0.550490
     3.3120      0.546030
     3.3125      0.541550
     3.3130      0.537300
     3.3135      0.533430
     3.3140      0.529440
     3.3145      0.525140
     3.3150      0.520760
     3.3155      0.515970
     3.3160      0.511200
     3.3165      0.507060
     3.3170      0.502920
     3.3175      0.499190
     3.3180      0.495500
     3.3185      0.491760
     3.3190      0.488000
     3.3195      0.484280
     3.3200      0.480580
     3.3205      0.477140
     3.3210      0.473930
     3.3215      0.471140
     3.3220      0.468960
     3.3225      0.466610
     3.3230      0.463810
     3.3235      0.460800
     3.3240      0.456600
     3.3245      0.452400
     3.3250      0.448230
     3.3255      0.444050
     3.3260      0.440210
     3.3265      0.436400
     3.3270      0.433270
     3.3275      0.430350
     3.3280      0.427760
     3.3285      0.425360
     3.3290      0.422990
     3.3295      0.420650
     3.3300      0.418410
     3.3305      0.416360
     3.3310      0.414120
     3.3315      0.411130
     3.3320      0.408140
     3.3325      0.405050
     3.3330      0.401960
     3.3335      0.399900
     3.3340      0.397910
     3.3345      0.395700
     3.3350      0.393430
     3.3355      0.391080
     3.3360      0.388690
     3.3365      0.386440
     3.3370      0.384350
     3.3375      0.382130
     3.3380      0.379640
     3.3385      0.377260
     3.3390      0.375280
     3.3395      0.373320
     3.3400      0.371640
     3.3405      0.369960
     3.3410      0.367640
     3.3415      0.365240
     3.3420      0.363220
     3.3425      0.361340
     3.3430      0.359850
     3.3435      0.358650
     3.3440      0.357330
     3.3445      0.355840
     3.3450      0.354420
     3.3455      0.353140
     3.3460      0.351890
     3.3465      0.350860
     3.3470      0.349830
     3.3475      0.348270
     3.3480      0.346670
     3.3485      0.344840
     3.3490      0.342950
     3.3495      0.341490
     3.3500      0.340290
     3.3505      0.339220
     3.3510      0.338290
     3.3515      0.337250
     3.3520      0.335960
     3.3525      0.334670
     3.3530      0.333490
     3.3535      0.332300
     3.3540      0.331190
     3.3545      0.330080
     3.3550      0.329100
     3.3555      0.328150
     3.3560      0.327470
     3.3565      0.326940
     3.3570      0.326310
     3.3575      0.325560
     3.3580      0.324700
     3.3585      0.323590
     3.3590      0.322500
     3.3595      0.321650
     3.3600      0.320800
     3.3605      0.320430
     3.3610      0.320110
     3.3615      0.319850
     3.3620      0.319630
     3.3625      0.319020
     3.3630      0.318120
     3.3635      0.317040
     3.3640      0.315680
     3.3645      0.314440
     3.3650      0.313710
     3.3655      0.312980
     3.3660      0.312890
     3.3665      0.312790
     3.3670      0.312680
     3.3675      0.312570
     3.3680      0.312190
     3.3685      0.311650
     3.3690      0.311160
     3.3695      0.310710
     3.3700      0.310490
     3.3705      0.310860
     3.3710      0.311210
     3.3715      0.311200
     3.3720      0.311200
     3.3725      0.310580
     3.3730      0.309880
     3.3735      0.309540
     3.3740      0.309360
     3.3745      0.309040
     3.3750      0.308590
     3.3755      0.308000
     3.3760      0.307120
     3.3765      0.306320
     3.3770      0.306380
     3.3775      0.306440
     3.3780      0.306980
     3.3785      0.307580
     3.3790      0.308000
     3.3795      0.308340
     3.3800      0.308540
     3.3805      0.308600
     3.3810      0.308610
     3.3815      0.308530
     3.3820      0.308510
     3.3825      0.309160
     3.3830      0.309800
     3.3835      0.310520
     3.3840      0.311250
     3.3845      0.311350
     3.3850      0.311150
     3.3855      0.311050
     3.3860      0.311070
     3.3865      0.311250
     3.3870      0.311940
     3.3875      0.312640
     3.3880      0.313750
     3.3885      0.314870
     3.3890      0.315890
     3.3895      0.316890
     3.3900      0.317360
     3.3905      0.317510
     3.3910      0.317590
     3.3915      0.317570
     3.3920      0.317490
     3.3925      0.317130
     3.3930      0.316780
     3.3935      0.317280
     3.3940      0.317820
     3.3945      0.319470
     3.3950      0.321530
     3.3955      0.322890
     3.3960      0.323570
     3.3965      0.324070
     3.3970      0.324090
     3.3975      0.324150
     3.3980      0.324910
     3.3985      0.325670
     3.3990      0.326440
     3.3995      0.327210
     3.4000      0.328030
     3.4005      0.328880
     3.4010      0.329590
     3.4015      0.330050
     3.4020      0.330560
     3.4025      0.331400
     3.4030      0.332240
     3.4035      0.333120
     3.4040      0.334010
     3.4045      0.334460
     3.4050      0.334720
     3.4055      0.335340
     3.4060      0.336450
     3.4065      0.337540
     3.4070      0.338610
     3.4075      0.339690
     3.4080      0.340470
     3.4085      0.341250
     3.4090      0.342440
     3.4095      0.343790
     3.4100      0.345130
     3.4105      0.346460
     3.4110      0.347840
     3.4115      0.349390
     3.4120      0.350940
     3.4125      0.352830
     3.4130      0.354720
     3.4135      0.356370
     3.4140      0.357940
     3.4145      0.359020
     3.4150      0.359600
     3.4155      0.360350
     3.4160      0.361610
     3.4165      0.362860
     3.4170      0.365690
     3.4175      0.368530
     3.4180      0.370450
     3.4185      0.372050
     3.4190      0.373420
     3.4195      0.374560
     3.4200      0.375870
     3.4205      0.377720
     3.4210      0.379570
     3.4215      0.380340
     3.4220      0.381070
     3.4225      0.382180
     3.4230      0.383430
     3.4235      0.385310
     3.4240      0.387920
     3.4245      0.390570
     3.4250      0.393380
     3.4255      0.396200
     3.4260      0.398740
     3.4265      0.401270
     3.4270      0.402930
     3.4275      0.404190
     3.4280      0.405600
     3.4285      0.407230
     3.4290      0.409030
     3.4295      0.411840
     3.4300      0.414660
     3.4305      0.417170
     3.4310      0.419650
     3.4315      0.421800
     3.4320      0.423740
     3.4325      0.425450
     3.4330      0.426710
     3.4335      0.428030
     3.4340      0.430140
     3.4345      0.432260
     3.4350      0.435240
     3.4355      0.438450
     3.4360      0.441360
     3.4365      0.443980
     3.4370      0.446670
     3.4375      0.449600
     3.4380      0.452530
     3.4385      0.455340
     3.4390      0.458140
     3.4395      0.460640
     3.4400      0.462980
     3.4405      0.465500
     3.4410      0.468280
     3.4415      0.471070
     3.4420      0.473890
     3.4425      0.476710
     3.4430      0.480020
     3.4435      0.483440
     3.4440      0.486780
     3.4445      0.490050
     3.4450      0.493170
     3.4455      0.495800
     3.4460      0.498440
     3.4465      0.501830
     3.4470      0.505260
     3.4475      0.508750
     3.4480      0.512260
     3.4485      0.515520
     3.4490      0.518320
     3.4495      0.521130
     3.4500      0.524000
     3.4505      0.526860
     3.4510      0.529690
     3.4515      0.532510
     3.4520      0.535450
     3.4525      0.538510
     3.4530      0.541770
     3.4535      0.545850
     3.4540      0.549930
     3.4545      0.553510
     3.4550      0.557040
     3.4555      0.560140
     3.4560      0.562950
     3.4565      0.566160
     3.4570      0.570370
     3.4575      0.574590
     3.4580      0.578750
     3.4585      0.582920
     3.4590      0.586290
     3.4595      0.589280
     3.4600      0.592510
     3.4605      0.596150
     3.4610      0.599820
     3.4615      0.604120
     3.4620      0.608420
     3.4625      0.612660
     3.4630      0.616860
     3.4635      0.621100
     3.4640      0.625360
     3.4645      0.629430
     3.4650      0.631980
     3.4655      0.634530
     3.4660      0.635990
     3.4665      0.637160
     3.4670      0.639860
     3.4675      0.644200
     3.4680      0.648640
     3.4685      0.653530
     3.4690      0.658420
     3.4695      0.660100
     3.4700      0.661170
     3.4705      0.662400
     3.4710      0.663780
     3.4715      0.665530
     3.4720      0.668770
     3.4725      0.672020
     3.4730      0.675880
     3.4735      0.679840
     3.4740      0.683720
     3.4745      0.687550
     3.4750      0.690890
     3.4755      0.692410
     3.4760      0.693930
     3.4765      0.695490
     3.4770      0.697060
     3.4775      0.699600
     3.4780      0.702920
     3.4785      0.706150
     3.4790      0.709060
     3.4795      0.711970
     3.4800      0.713880
     3.4805      0.715660
     3.4810      0.717350
     3.4815      0.718960
     3.4820      0.720790
     3.4825      0.723410
     3.4830      0.726020
     3.4835      0.727800
     3.4840      0.729450
     3.4845      0.730040
     3.4850      0.729690
     3.4855      0.729620
     3.4860      0.730720
     3.4865      0.731820
     3.4870      0.734510
     3.4875      0.737480
     3.4880      0.740350
     3.4885      0.743100
     3.4890      0.745670
     3.4895      0.747290
     3.4900      0.748920
     3.4905      0.749150
     3.4910      0.749040
     3.4915      0.748910
     3.4920      0.748730
     3.4925      0.748740
     3.4930      0.750390
     3.4935      0.752040
     3.4940      0.753980
     3.4945      0.756030
     3.4950      0.757420
     3.4955      0.757800
     3.4960      0.758120
     3.4965      0.757080
     3.4970      0.756050
     3.4975      0.755010
     3.4980      0.753980
     3.4985      0.753380
     3.4990      0.753720
     3.4995      0.754060
     3.5000      0.754740
     3.5005      0.755440
     3.5010      0.754920
     3.5015      0.753590
     3.5020      0.752180
     3.5025      0.750530
     3.5030      0.748880
     3.5035      0.747670
     3.5040      0.746530
     3.5045      0.745240
     3.5050      0.743800
     3.5055      0.742560
     3.5060      0.742670
     3.5065      0.742780
     3.5070      0.743200
     3.5075      0.743720
     3.5080      0.743880
     3.5085      0.743440
     3.5090      0.743000
     3.5095      0.741880
     3.5100      0.740770
     3.5105      0.739150
     3.5110      0.737240
     3.5115      0.735560
     3.5120      0.734570
     3.5125      0.733580
     3.5130      0.733300
     3.5135      0.733130
     3.5140      0.732370
     3.5145      0.731030
     3.5150      0.729540
     3.5155      0.726900
     3.5160      0.724260
     3.5165      0.722130
     3.5170      0.720200
     3.5175      0.718590
     3.5180      0.717590
     3.5185      0.716590
     3.5190      0.715470
     3.5195      0.714350
     3.5200      0.712950
     3.5205      0.711360
     3.5210      0.709420
     3.5215      0.705960
     3.5220      0.702500
     3.5225      0.700240
     3.5230      0.698310
     3.5235      0.697320
     3.5240      0.697800
     3.5245      0.698280
     3.5250      0.696750
     3.5255      0.695220
     3.5260      0.693570
     3.5265      0.691850
     3.5270      0.690260
     3.5275      0.689230
     3.5280      0.688200
     3.5285      0.686140
     3.5290      0.683830
     3.5295      0.681210
     3.5300      0.678140
     3.5305      0.675060
     3.5310      0.674500
     3.5315      0.673940
     3.5320      0.675420
     3.5325      0.678280
     3.5330      0.680800
     3.5335      0.681860
     3.5340      0.682910
     3.5345      0.682310
     3.5350      0.681240
     3.5355      0.679580
     3.5360      0.676900
     3.5365      0.674230
     3.5370      0.670280
     3.5375      0.666280
     3.5380      0.664230
     3.5385      0.663800
     3.5390      0.663560
     3.5395      0.664530
     3.5400      0.665510
     3.5405      0.665720
     3.5410      0.665630
     3.5415      0.665950
     3.5420      0.667260
     3.5425      0.668570
     3.5430      0.670290
     3.5435      0.672060
     3.5440      0.673250
     3.5445      0.673760
     3.5450      0.674220
     3.5455      0.673490
     3.5460      0.672750
     3.5465      0.672330
     3.5470      0.672110
     3.5475      0.672010
     3.5480      0.672500
     3.5485      0.672990
     3.5490      0.672460
     3.5495      0.671580
     3.5500      0.670220
     3.5505      0.667820
     3.5510      0.665420
     3.5515      0.663100
     3.5520      0.660790
     3.5525      0.659360
     3.5530      0.658960
     3.5535      0.658620
     3.5540      0.661000
     3.5545      0.663390
     3.5550      0.667010
     3.5555      0.671510
     3.5560      0.675470
     3.5565      0.676320
     3.5570      0.677160
     3.5575      0.674400
     3.5580      0.670160
     3.5585      0.667050
     3.5590      0.667080
     3.5595      0.667120
     3.5600      0.668120
     3.5605      0.669340
     3.5610      0.668140
     3.5615      0.663000
     3.5620      0.657860
     3.5625      0.656210
     3.5630      0.654820
     3.5635      0.655810
     3.5640      0.659310
     3.5645      0.662740
     3.5650      0.663850
     3.5655      0.664960
     3.5660      0.667190
     3.5665      0.670230
     3.5670      0.673210
     3.5675      0.675800
     3.5680      0.678380
     3.5685      0.675950
     3.5690      0.671100
     3.5695      0.665960
     3.5700      0.659770
     3.5705      0.653570
     3.5710      0.654000
     3.5715      0.656520
