# author : Oliver Czoske
# source : Ester Aranzana
# date_created : 2017-11-20
# date_modified : 2025-12-16
# status : Measured at 80 K
# wavelength_unit : um
# changes :
# - 2022-03-17 (KL) Updated to match Rics email
# - 2023-06-06 (RD) Modified profiles after discussion with Schott
# - 2025-12-16 (OC) Replaced with measured values
#
 wavelength  transmission
     0.9990      0.004640
     0.9995      0.004640
     1.0000      0.002180
     1.0005      0.002130
     1.0010      0.001730
     1.0015      0.000380
     1.0020      0.000000
     1.0025      0.002130
     1.0030      0.001570
     1.0035      0.000000
     1.0040      0.001530
     1.0045      0.001380
     1.0050      0.001150
     1.0055      0.000570
     1.0060      0.000000
     1.0065      0.001720
     1.0070      0.000000
     1.0075      0.001520
     1.0080      0.000420
     1.0085      0.000230
     1.0090      0.005130
     1.0095      0.001110
     1.0100      0.002700
     1.0105      0.000810
     1.0110      0.000000
     1.0115      0.001300
     1.0120      0.002900
     1.0125      0.000000
     1.0130      0.003450
     1.0135      0.000000
     1.0140      0.004120
     1.0145      0.001840
     1.0150      0.000190
     1.0155      0.001830
     1.0160      0.000310
     1.0165      0.000000
     1.0170      0.005360
     1.0175      0.000980
     1.0180      0.000000
     1.0185      0.003530
     1.0190      0.003840
     1.0195      0.000000
     1.0200      0.000520
     1.0205      0.000210
     1.0210      0.001180
     1.0215      0.000330
     1.0220      0.001030
     1.0225      0.000000
     1.0230      0.000080
     1.0235      0.002180
     1.0240      0.002670
     1.0245      0.002470
     1.0250      0.000260
     1.0255      0.000180
     1.0260      0.000000
     1.0265      0.000980
     1.0270      0.000000
     1.0275      0.002380
     1.0280      0.000390
     1.0285      0.000240
     1.0290      0.000210
     1.0295      0.002660
     1.0300      0.000630
     1.0305      0.000000
     1.0310      0.000070
     1.0315      0.001750
     1.0320      0.001120
     1.0325      0.000290
     1.0330      0.003240
     1.0335      0.001480
     1.0340      0.001190
     1.0345      0.001780
     1.0350      0.000950
     1.0355      0.000280
     1.0360      0.001620
     1.0365      0.000250
     1.0370      0.000000
     1.0375      0.001520
     1.0380      0.000630
     1.0385      0.000000
     1.0390      0.001480
     1.0395      0.000780
     1.0400      0.000640
     1.0405      0.000090
     1.0410      0.000000
     1.0415      0.005960
     1.0420      0.000000
     1.0425      0.005530
     1.0430      0.004080
     1.0435      0.004160
     1.0440      0.002910
     1.0445      0.001080
     1.0450      0.003200
     1.0455      0.006000
     1.0460      0.000980
     1.0465      0.000600
     1.0470      0.002700
     1.0475      0.000950
     1.0480      0.002230
     1.0485      0.002510
     1.0490      0.000000
     1.0495      0.000000
     1.0500      0.000120
     1.0505      0.000430
     1.0510      0.002940
     1.0515      0.002080
     1.0520      0.001140
     1.0525      0.001750
     1.0530      0.004740
     1.0535      0.001640
     1.0540      0.002010
     1.0545      0.004570
     1.0550      0.002310
     1.0555      0.001010
     1.0560      0.000110
     1.0565      0.001310
     1.0570      0.000000
     1.0575      0.000000
     1.0580      0.001480
     1.0585      0.000000
     1.0590      0.001060
     1.0595      0.000110
     1.0600      0.000870
     1.0605      0.000040
     1.0610      0.002640
     1.0615      0.001180
     1.0620      0.001220
     1.0625      0.000440
     1.0630      0.000750
     1.0635      0.000020
     1.0640      0.000000
     1.0645      0.000670
     1.0650      0.000170
     1.0655      0.000860
     1.0660      0.000790
     1.0665      0.000700
     1.0670      0.000550
     1.0675      0.000820
     1.0680      0.000000
     1.0685      0.003280
     1.0690      0.002640
     1.0695      0.000000
     1.0700      0.000200
     1.0705      0.000910
     1.0710      0.001250
     1.0715      0.000700
     1.0720      0.000050
     1.0725      0.000000
     1.0730      0.000480
     1.0735      0.001160
     1.0740      0.002380
     1.0745      0.001250
     1.0750      0.001340
     1.0755      0.000670
     1.0760      0.000170
     1.0765      0.001900
     1.0770      0.000000
     1.0775      0.001540
     1.0780      0.002150
     1.0785      0.002820
     1.0790      0.000050
     1.0795      0.000790
     1.0800      0.003480
     1.0805      0.005540
     1.0810      0.001670
     1.0815      0.003870
     1.0820      0.003120
     1.0825      0.003900
     1.0830      0.001330
     1.0835      0.005350
     1.0840      0.003360
     1.0845      0.001150
     1.0850      0.004090
     1.0855      0.005830
     1.0860      0.006380
     1.0865      0.005440
     1.0870      0.000540
     1.0875      0.001780
     1.0880      0.002580
     1.0885      0.001810
     1.0890      0.003170
     1.0895      0.003780
     1.0900      0.003940
     1.0905      0.002160
     1.0910      0.001170
     1.0915      0.002220
     1.0920      0.002010
     1.0925      0.004360
     1.0930      0.002680
     1.0935      0.003500
     1.0940      0.002240
     1.0945      0.001990
     1.0950      0.000650
     1.0955      0.002470
     1.0960      0.001950
     1.0965      0.001430
     1.0970      0.000090
     1.0975      0.000980
     1.0980      0.003080
     1.0985      0.004810
     1.0990      0.004720
     1.0995      0.001870
     1.1000      0.002100
     1.1005      0.000130
     1.1010      0.001000
     1.1015      0.002730
     1.1020      0.000000
     1.1025      0.000020
     1.1030      0.000900
     1.1035      0.000500
     1.1040      0.000170
     1.1045      0.000930
     1.1050      0.000000
     1.1055      0.000590
     1.1060      0.000350
     1.1065      0.001640
     1.1070      0.000000
     1.1075      0.001040
     1.1080      0.000000
     1.1085      0.000000
     1.1090      0.000000
     1.1095      0.000190
     1.1100      0.000620
     1.1105      0.000000
     1.1110      0.001530
     1.1115      0.000090
     1.1120      0.000000
     1.1125      0.000000
     1.1130      0.001690
     1.1135      0.003320
     1.1140      0.003550
     1.1145      0.000340
     1.1150      0.000050
     1.1155      0.000000
     1.1160      0.000240
     1.1165      0.003770
     1.1170      0.000040
     1.1175      0.000830
     1.1180      0.000000
     1.1185      0.000070
     1.1190      0.000170
     1.1195      0.000550
     1.1200      0.000000
     1.1205      0.000110
     1.1210      0.000000
     1.1215      0.000890
     1.1220      0.000230
     1.1225      0.000510
     1.1230      0.000000
     1.1235      0.000950
     1.1240      0.000520
     1.1245      0.000500
     1.1250      0.000860
     1.1255      0.000280
     1.1260      0.000150
     1.1265      0.001300
     1.1270      0.000210
     1.1275      0.000000
     1.1280      0.000000
     1.1285      0.000430
     1.1290      0.002060
     1.1295      0.000320
     1.1300      0.000750
     1.1305      0.002510
     1.1310      0.001100
     1.1315      0.000000
     1.1320      0.001300
     1.1325      0.003160
     1.1330      0.000580
     1.1335      0.000650
     1.1340      0.000950
     1.1345      0.000160
     1.1350      0.000240
     1.1355      0.000000
     1.1360      0.001400
     1.1365      0.000540
     1.1370      0.001400
     1.1375      0.000690
     1.1380      0.000000
     1.1385      0.000990
     1.1390      0.001070
     1.1395      0.000320
     1.1400      0.001570
     1.1405      0.000000
     1.1410      0.000840
     1.1415      0.000000
     1.1420      0.000000
     1.1425      0.003180
     1.1430      0.000380
     1.1435      0.000180
     1.1440      0.000080
     1.1445      0.000000
     1.1450      0.000000
     1.1455      0.000000
     1.1460      0.000040
     1.1465      0.002250
     1.1470      0.000000
     1.1475      0.000810
     1.1480      0.001240
     1.1485      0.000040
     1.1490      0.000700
     1.1495      0.000440
     1.1500      0.000330
     1.1505      0.000000
     1.1510      0.000000
     1.1515      0.003220
     1.1520      0.001800
     1.1525      0.000320
     1.1530      0.000000
     1.1535      0.002100
     1.1540      0.001170
     1.1545      0.000280
     1.1550      0.000700
     1.1555      0.000510
     1.1560      0.001240
     1.1565      0.001690
     1.1570      0.000620
     1.1575      0.000180
     1.1580      0.000320
     1.1585      0.000130
     1.1590      0.000450
     1.1595      0.003210
     1.1600      0.000890
     1.1605      0.001300
     1.1610      0.000900
     1.1615      0.000070
     1.1620      0.000110
     1.1625      0.000180
     1.1630      0.001690
     1.1635      0.001260
     1.1640      0.001420
     1.1645      0.000000
     1.1650      0.001380
     1.1655      0.000110
     1.1660      0.001340
     1.1665      0.000360
     1.1670      0.001850
     1.1675      0.000790
     1.1680      0.000490
     1.1685      0.000000
     1.1690      0.000010
     1.1695      0.000850
     1.1700      0.000000
     1.1705      0.000000
     1.1710      0.001660
     1.1715      0.002610
     1.1720      0.000460
     1.1725      0.000030
     1.1730      0.000660
     1.1735      0.002380
     1.1740      0.002640
     1.1745      0.001180
     1.1750      0.000000
     1.1755      0.000000
     1.1760      0.000000
     1.1765      0.001210
     1.1770      0.003090
     1.1775      0.001650
     1.1780      0.000000
     1.1785      0.000210
     1.1790      0.000000
     1.1795      0.000000
     1.1800      0.001670
     1.1805      0.002350
     1.1810      0.000000
     1.1815      0.000000
     1.1820      0.000160
     1.1825      0.000000
     1.1830      0.000000
     1.1835      0.000460
     1.1840      0.000180
     1.1845      0.002080
     1.1850      0.004240
     1.1855      0.002560
     1.1860      0.007780
     1.1865      0.004210
     1.1870      0.000000
     1.1875      0.000000
     1.1880      0.000000
     1.1885      0.000000
     1.1890      0.000550
     1.1895      0.000000
     1.1900      0.000000
     1.1905      0.000240
     1.1910      0.000890
     1.1915      0.000100
     1.1920      0.001870
     1.1925      0.001400
     1.1930      0.000030
     1.1935      0.000210
     1.1940      0.000850
     1.1945      0.000410
     1.1950      0.000200
     1.1955      0.000000
     1.1960      0.000000
     1.1965      0.000160
     1.1970      0.000080
     1.1975      0.000500
     1.1980      0.001480
     1.1985      0.000920
     1.1990      0.000700
     1.1995      0.001460
     1.2000      0.001510
     1.2005      0.002960
     1.2010      0.000330
     1.2015      0.003630
     1.2020      0.001510
     1.2025      0.000020
     1.2030      0.002290
     1.2035      0.002570
     1.2040      0.000900
     1.2045      0.000000
     1.2050      0.000000
     1.2055      0.000170
     1.2060      0.000530
     1.2065      0.000000
     1.2070      0.000080
     1.2075      0.000000
     1.2080      0.001170
     1.2085      0.000000
     1.2090      0.000000
     1.2095      0.000000
     1.2100      0.001570
     1.2105      0.000660
     1.2110      0.000000
     1.2115      0.000000
     1.2120      0.000000
     1.2125      0.000000
     1.2130      0.001280
     1.2135      0.002010
     1.2140      0.000000
     1.2145      0.000000
     1.2150      0.000030
     1.2155      0.002190
     1.2160      0.001430
     1.2165      0.000970
     1.2170      0.000000
     1.2175      0.000000
     1.2180      0.000000
     1.2185      0.000000
     1.2190      0.000000
     1.2195      0.001090
     1.2200      0.000990
     1.2205      0.000000
     1.2210      0.000600
     1.2215      0.001140
     1.2220      0.000000
     1.2225      0.000590
     1.2230      0.000000
     1.2235      0.002020
     1.2240      0.000000
     1.2245      0.000000
     1.2250      0.000000
     1.2255      0.000000
     1.2260      0.001960
     1.2265      0.000720
     1.2270      0.000000
     1.2275      0.001910
     1.2280      0.000070
     1.2285      0.000100
     1.2290      0.001130
     1.2295      0.001220
     1.2300      0.000420
     1.2305      0.000280
     1.2310      0.000250
     1.2315      0.000000
     1.2320      0.000170
     1.2325      0.000000
     1.2330      0.000000
     1.2335      0.000600
     1.2340      0.000000
     1.2345      0.000990
     1.2350      0.000020
     1.2355      0.001210
     1.2360      0.000000
     1.2365      0.000510
     1.2370      0.000490
     1.2375      0.000010
     1.2380      0.001100
     1.2385      0.000000
     1.2390      0.000030
     1.2395      0.000000
     1.2400      0.000490
     1.2405      0.000520
     1.2410      0.000000
     1.2415      0.000550
     1.2420      0.000000
     1.2425      0.001510
     1.2430      0.000000
     1.2435      0.000020
     1.2440      0.000100
     1.2445      0.000000
     1.2450      0.000000
     1.2455      0.000450
     1.2460      0.000000
     1.2465      0.000200
     1.2470      0.000000
     1.2475      0.000020
     1.2480      0.000040
     1.2485      0.000000
     1.2490      0.001090
     1.2495      0.002140
     1.2500      0.000560
     1.2505      0.000770
     1.2510      0.000460
     1.2515      0.000160
     1.2520      0.001060
     1.2525      0.000310
     1.2530      0.000000
     1.2535      0.000400
     1.2540      0.000100
     1.2545      0.000000
     1.2550      0.000380
     1.2555      0.000000
     1.2560      0.000150
     1.2565      0.000000
     1.2570      0.000000
     1.2575      0.000910
     1.2580      0.000670
     1.2585      0.000000
     1.2590      0.001690
     1.2595      0.000670
     1.2600      0.000410
     1.2605      0.000000
     1.2610      0.000360
     1.2615      0.000330
     1.2620      0.000020
     1.2625      0.000260
     1.2630      0.000300
     1.2635      0.000170
     1.2640      0.000070
     1.2645      0.000070
     1.2650      0.000370
     1.2655      0.001350
     1.2660      0.000260
     1.2665      0.000850
     1.2670      0.000030
     1.2675      0.000090
     1.2680      0.000000
     1.2685      0.001120
     1.2690      0.000000
     1.2695      0.001630
     1.2700      0.000740
     1.2705      0.000000
     1.2710      0.000000
     1.2715      0.000000
     1.2720      0.000810
     1.2725      0.000560
     1.2730      0.000030
     1.2735      0.001210
     1.2740      0.000000
     1.2745      0.000000
     1.2750      0.000040
     1.2755      0.000000
     1.2760      0.001850
     1.2765      0.001080
     1.2770      0.000000
     1.2775      0.000000
     1.2780      0.000000
     1.2785      0.000140
     1.2790      0.000210
     1.2795      0.001070
     1.2800      0.000000
     1.2805      0.000000
     1.2810      0.000190
     1.2815      0.001070
     1.2820      0.000400
     1.2825      0.000920
     1.2830      0.000100
     1.2835      0.000310
     1.2840      0.000800
     1.2845      0.000080
     1.2850      0.000240
     1.2855      0.001000
     1.2860      0.000630
     1.2865      0.001850
     1.2870      0.001380
     1.2875      0.000960
     1.2880      0.001860
     1.2885      0.001330
     1.2890      0.000660
     1.2895      0.001190
     1.2900      0.000020
     1.2905      0.000310
     1.2910      0.000620
     1.2915      0.000580
     1.2920      0.000410
     1.2925      0.000060
     1.2930      0.000830
     1.2935      0.000600
     1.2940      0.000510
     1.2945      0.000180
     1.2950      0.000150
     1.2955      0.000000
     1.2960      0.000000
     1.2965      0.000140
     1.2970      0.000850
     1.2975      0.000010
     1.2980      0.000900
     1.2985      0.000260
     1.2990      0.001850
     1.2995      0.000900
     1.3000      0.000000
     1.3005      0.000000
     1.3010      0.000360
     1.3015      0.000590
     1.3020      0.000580
     1.3025      0.000500
     1.3030      0.000890
     1.3035      0.000450
     1.3040      0.000800
     1.3045      0.001420
     1.3050      0.000300
     1.3055      0.000000
     1.3060      0.000000
     1.3065      0.000000
     1.3070      0.000000
     1.3075      0.000210
     1.3080      0.002100
     1.3085      0.001790
     1.3090      0.000000
     1.3095      0.000330
     1.3100      0.000000
     1.3105      0.000000
     1.3110      0.000020
     1.3115      0.001200
     1.3120      0.000090
     1.3125      0.000750
     1.3130      0.001290
     1.3135      0.000690
     1.3140      0.000830
     1.3145      0.000000
     1.3150      0.000000
     1.3155      0.000000
     1.3160      0.000110
     1.3165      0.000110
     1.3170      0.000330
     1.3175      0.000010
     1.3180      0.001360
     1.3185      0.001430
     1.3190      0.000360
     1.3195      0.000120
     1.3200      0.000090
     1.3205      0.000000
     1.3210      0.000000
     1.3215      0.000000
     1.3220      0.000640
     1.3225      0.001440
     1.3230      0.000880
     1.3235      0.000480
     1.3240      0.000620
     1.3245      0.000500
     1.3250      0.000300
     1.3255      0.000160
     1.3260      0.000000
     1.3265      0.001080
     1.3270      0.000820
     1.3275      0.001090
     1.3280      0.000990
     1.3285      0.001080
     1.3290      0.001790
     1.3295      0.000420
     1.3300      0.000420
     1.3305      0.000250
     1.3310      0.000530
     1.3315      0.000000
     1.3320      0.000260
     1.3325      0.000090
     1.3330      0.000000
     1.3335      0.000000
     1.3340      0.000380
     1.3345      0.000440
     1.3350      0.000050
     1.3355      0.000020
     1.3360      0.000160
     1.3365      0.000170
     1.3370      0.000000
     1.3375      0.000000
     1.3380      0.000640
     1.3385      0.001360
     1.3390      0.000300
     1.3395      0.000120
     1.3400      0.000000
     1.3405      0.000000
     1.3410      0.000700
     1.3415      0.000120
     1.3420      0.000170
     1.3425      0.000000
     1.3430      0.000000
     1.3435      0.000730
     1.3440      0.000980
     1.3445      0.000000
     1.3450      0.000290
     1.3455      0.000020
     1.3460      0.000060
     1.3465      0.000000
     1.3470      0.000010
     1.3475      0.001170
     1.3480      0.000010
     1.3485      0.000450
     1.3490      0.000000
     1.3495      0.000000
     1.3500      0.000550
     1.3505      0.000030
     1.3510      0.000000
     1.3515      0.000210
     1.3520      0.000140
     1.3525      0.000360
     1.3530      0.000600
     1.3535      0.000810
     1.3540      0.000500
     1.3545      0.000670
     1.3550      0.000000
     1.3555      0.000460
     1.3560      0.000500
     1.3565      0.000320
     1.3570      0.000000
     1.3575      0.000460
     1.3580      0.000490
     1.3585      0.000840
     1.3590      0.000000
     1.3595      0.000180
     1.3600      0.000250
     1.3605      0.000560
     1.3610      0.000380
     1.3615      0.000010
     1.3620      0.000310
     1.3625      0.000460
     1.3630      0.000910
     1.3635      0.000880
     1.3640      0.000010
     1.3645      0.000020
     1.3650      0.000040
     1.3655      0.000770
     1.3660      0.000010
     1.3665      0.000000
     1.3670      0.000240
     1.3675      0.000420
     1.3680      0.000000
     1.3685      0.000050
     1.3690      0.000690
     1.3695      0.000680
     1.3700      0.001290
     1.3705      0.001100
     1.3710      0.001080
     1.3715      0.000640
     1.3720      0.000500
     1.3725      0.000840
     1.3730      0.001090
     1.3735      0.000290
     1.3740      0.000820
     1.3745      0.000370
     1.3750      0.000860
     1.3755      0.000780
     1.3760      0.000140
     1.3765      0.000000
     1.3770      0.000140
     1.3775      0.000500
     1.3780      0.000700
     1.3785      0.000000
     1.3790      0.000000
     1.3795      0.000000
     1.3800      0.000640
     1.3805      0.000000
     1.3810      0.000220
     1.3815      0.000830
     1.3820      0.000390
     1.3825      0.000260
     1.3830      0.000300
     1.3835      0.000430
     1.3840      0.000800
     1.3845      0.000360
     1.3850      0.000880
     1.3855      0.000980
     1.3860      0.000030
     1.3865      0.001340
     1.3870      0.000460
     1.3875      0.001230
     1.3880      0.000160
     1.3885      0.000650
     1.3890      0.000000
     1.3895      0.000490
     1.3900      0.000730
     1.3905      0.000490
     1.3910      0.000170
     1.3915      0.000230
     1.3920      0.000230
     1.3925      0.000000
     1.3930      0.000000
     1.3935      0.000940
     1.3940      0.000000
     1.3945      0.000020
     1.3950      0.000410
     1.3955      0.000560
     1.3960      0.000000
     1.3965      0.000130
     1.3970      0.000340
     1.3975      0.000870
     1.3980      0.000660
     1.3985      0.000000
     1.3990      0.000090
     1.3995      0.000100
     1.4000      0.000000
     1.4005      0.000000
     1.4010      0.000370
     1.4015      0.000360
     1.4020      0.000710
     1.4025      0.000140
     1.4030      0.000000
     1.4035      0.000000
     1.4040      0.001120
     1.4045      0.000780
     1.4050      0.000000
     1.4055      0.001200
     1.4060      0.000750
     1.4065      0.000280
     1.4070      0.001070
     1.4075      0.000600
     1.4080      0.000000
     1.4085      0.000330
     1.4090      0.000360
     1.4095      0.000050
     1.4100      0.000000
     1.4105      0.000000
     1.4110      0.000000
     1.4115      0.000000
     1.4120      0.000000
     1.4125      0.000000
     1.4130      0.000890
     1.4135      0.000010
     1.4140      0.000790
     1.4145      0.000690
     1.4150      0.000620
     1.4155      0.000160
     1.4160      0.000550
     1.4165      0.000140
     1.4170      0.001320
     1.4175      0.000470
     1.4180      0.000000
     1.4185      0.000220
     1.4190      0.000660
     1.4195      0.001150
     1.4200      0.000880
     1.4205      0.000440
     1.4210      0.000290
     1.4215      0.000000
     1.4220      0.000180
     1.4225      0.000350
     1.4230      0.000660
     1.4235      0.000230
     1.4240      0.000140
     1.4245      0.000000
     1.4250      0.000200
     1.4255      0.000250
     1.4260      0.001110
     1.4265      0.000250
     1.4270      0.000440
     1.4275      0.000580
     1.4280      0.000330
     1.4285      0.000000
     1.4290      0.000020
     1.4295      0.000720
     1.4300      0.000790
     1.4305      0.000300
     1.4310      0.000360
     1.4315      0.000460
     1.4320      0.000520
     1.4325      0.000880
     1.4330      0.001200
     1.4335      0.000600
     1.4340      0.001020
     1.4345      0.000000
     1.4350      0.000770
     1.4355      0.000550
     1.4360      0.001130
     1.4365      0.000060
     1.4370      0.000080
     1.4375      0.001120
     1.4380      0.000880
     1.4385      0.001730
     1.4390      0.001510
     1.4395      0.000400
     1.4400      0.000810
     1.4405      0.000290
     1.4410      0.001210
     1.4415      0.000240
     1.4420      0.000590
     1.4425      0.001310
     1.4430      0.000520
     1.4435      0.001500
     1.4440      0.000860
     1.4445      0.000180
     1.4450      0.000800
     1.4455      0.000620
     1.4460      0.000310
     1.4465      0.000000
     1.4470      0.000140
     1.4475      0.000040
     1.4480      0.000780
     1.4485      0.000000
     1.4490      0.000030
     1.4495      0.001000
     1.4500      0.000160
     1.4505      0.000460
     1.4510      0.000990
     1.4515      0.001060
     1.4520      0.000370
     1.4525      0.000190
     1.4530      0.000110
     1.4535      0.000760
     1.4540      0.000010
     1.4545      0.000390
     1.4550      0.000870
     1.4555      0.000040
     1.4560      0.001800
     1.4565      0.000670
     1.4570      0.000330
     1.4575      0.000200
     1.4580      0.000410
     1.4585      0.000500
     1.4590      0.000460
     1.4595      0.000260
     1.4600      0.000210
     1.4605      0.000000
     1.4610      0.000860
     1.4615      0.000540
     1.4620      0.000580
     1.4625      0.000440
     1.4630      0.000800
     1.4635      0.000080
     1.4640      0.000210
     1.4645      0.000280
     1.4650      0.000550
     1.4655      0.000340
     1.4660      0.000690
     1.4665      0.000850
     1.4670      0.000570
     1.4675      0.000610
     1.4680      0.000190
     1.4685      0.000340
     1.4690      0.000250
     1.4695      0.000130
     1.4700      0.000500
     1.4705      0.000700
     1.4710      0.000470
     1.4715      0.001130
     1.4720      0.000080
     1.4725      0.000170
     1.4730      0.000910
     1.4735      0.000010
     1.4740      0.000180
     1.4745      0.000770
     1.4750      0.000250
     1.4755      0.000740
     1.4760      0.001070
     1.4765      0.000910
     1.4770      0.000900
     1.4775      0.000780
     1.4780      0.000870
     1.4785      0.001600
     1.4790      0.000690
     1.4795      0.000000
     1.4800      0.000020
     1.4805      0.000000
     1.4810      0.000240
     1.4815      0.001060
     1.4820      0.000670
     1.4825      0.000530
     1.4830      0.000570
     1.4835      0.000100
     1.4840      0.000520
     1.4845      0.001080
     1.4850      0.000340
     1.4855      0.000130
     1.4860      0.000380
     1.4865      0.000000
     1.4870      0.000000
     1.4875      0.000000
     1.4880      0.000000
     1.4885      0.000480
     1.4890      0.000360
     1.4895      0.000000
     1.4900      0.000000
     1.4905      0.000460
     1.4910      0.000750
     1.4915      0.000180
     1.4920      0.000240
     1.4925      0.000770
     1.4930      0.000030
     1.4935      0.000030
     1.4940      0.000040
     1.4945      0.000000
     1.4950      0.000040
     1.4955      0.000330
     1.4960      0.000270
     1.4965      0.000410
     1.4970      0.001450
     1.4975      0.000580
     1.4980      0.000580
     1.4985      0.000060
     1.4990      0.000060
     1.4995      0.000950
     1.5000      0.000370
     1.5005      0.000700
     1.5010      0.000600
     1.5015      0.000670
     1.5020      0.000530
     1.5025      0.000620
     1.5030      0.000140
     1.5035      0.000290
     1.5040      0.000070
     1.5045      0.000880
     1.5050      0.001110
     1.5055      0.000980
     1.5060      0.000670
     1.5065      0.000230
     1.5070      0.000480
     1.5075      0.000220
     1.5080      0.000000
     1.5085      0.000310
     1.5090      0.000640
     1.5095      0.000420
     1.5100      0.000130
     1.5105      0.000970
     1.5110      0.001330
     1.5115      0.000460
     1.5120      0.000630
     1.5125      0.000180
     1.5130      0.000260
     1.5135      0.001130
     1.5140      0.000800
     1.5145      0.001210
     1.5150      0.001830
     1.5155      0.000780
     1.5160      0.001180
     1.5165      0.000950
     1.5170      0.000430
     1.5175      0.000610
     1.5180      0.001310
     1.5185      0.001370
     1.5190      0.001540
     1.5195      0.001060
     1.5200      0.000870
     1.5205      0.001160
     1.5210      0.000810
     1.5215      0.000540
     1.5220      0.001020
     1.5225      0.001080
     1.5230      0.001340
     1.5235      0.001070
     1.5240      0.000480
     1.5245      0.000380
     1.5250      0.000000
     1.5255      0.000690
     1.5260      0.000270
     1.5265      0.000670
     1.5270      0.000820
     1.5275      0.000720
     1.5280      0.001100
     1.5285      0.001060
     1.5290      0.000000
     1.5295      0.000310
     1.5300      0.000790
     1.5305      0.000630
     1.5310      0.000980
     1.5315      0.000390
     1.5320      0.000840
     1.5325      0.000510
     1.5330      0.000470
     1.5335      0.000540
     1.5340      0.000900
     1.5345      0.001200
     1.5350      0.001320
     1.5355      0.000410
     1.5360      0.000400
     1.5365      0.000480
     1.5370      0.000380
     1.5375      0.000190
     1.5380      0.000880
     1.5385      0.000250
     1.5390      0.000270
     1.5395      0.000090
     1.5400      0.001190
     1.5405      0.000580
     1.5410      0.000510
     1.5415      0.000360
     1.5420      0.001600
     1.5425      0.000640
     1.5430      0.000230
     1.5435      0.000460
     1.5440      0.000660
     1.5445      0.000650
     1.5450      0.000800
     1.5455      0.000190
     1.5460      0.001440
     1.5465      0.001080
     1.5470      0.000110
     1.5475      0.000000
     1.5480      0.000330
     1.5485      0.000810
     1.5490      0.000280
     1.5495      0.000080
     1.5500      0.000270
     1.5505      0.000980
     1.5510      0.000420
     1.5515      0.000340
     1.5520      0.000340
     1.5525      0.000000
     1.5530      0.000150
     1.5535      0.000250
     1.5540      0.000290
     1.5545      0.000750
     1.5550      0.000710
     1.5555      0.000550
     1.5560      0.000370
     1.5565      0.000270
     1.5570      0.000680
     1.5575      0.000550
     1.5580      0.000460
     1.5585      0.000100
     1.5590      0.000420
     1.5595      0.000740
     1.5600      0.000820
     1.5605      0.000370
     1.5610      0.000000
     1.5615      0.000010
     1.5620      0.000000
     1.5625      0.000030
     1.5630      0.000130
     1.5635      0.000020
     1.5640      0.000400
     1.5645      0.000880
     1.5650      0.001100
     1.5655      0.000550
     1.5660      0.000590
     1.5665      0.000900
     1.5670      0.000690
     1.5675      0.000890
     1.5680      0.000620
     1.5685      0.001620
     1.5690      0.001630
     1.5695      0.001470
     1.5700      0.001920
     1.5705      0.002820
     1.5710      0.003000
     1.5715      0.004220
     1.5720      0.005230
     1.5725      0.006830
     1.5730      0.008580
     1.5735      0.009740
     1.5740      0.009040
     1.5745      0.007050
     1.5750      0.006510
     1.5755      0.005390
     1.5760      0.004740
     1.5765      0.003630
     1.5770      0.003440
     1.5775      0.001870
     1.5780      0.001930
     1.5785      0.001870
     1.5790      0.000680
     1.5795      0.000690
     1.5800      0.001600
     1.5805      0.000730
     1.5810      0.000570
     1.5815      0.000470
     1.5820      0.000570
     1.5825      0.000540
     1.5830      0.000720
     1.5835      0.000240
     1.5840      0.000290
     1.5845      0.000230
     1.5850      0.000410
     1.5855      0.000010
     1.5860      0.000530
     1.5865      0.000050
     1.5870      0.000650
     1.5875      0.000440
     1.5880      0.000420
     1.5885      0.000390
     1.5890      0.000270
     1.5895      0.000060
     1.5900      0.000620
     1.5905      0.000940
     1.5910      0.000400
     1.5915      0.000000
     1.5920      0.000020
     1.5925      0.000000
     1.5930      0.000000
     1.5935      0.000040
     1.5940      0.000010
     1.5945      0.000000
     1.5950      0.000060
     1.5955      0.000000
     1.5960      0.000070
     1.5965      0.000390
     1.5970      0.000790
     1.5975      0.000100
     1.5980      0.000420
     1.5985      0.000410
     1.5990      0.000000
     1.5995      0.000020
     1.6000      0.000130
     1.6005      0.000920
     1.6010      0.001000
     1.6015      0.000840
     1.6020      0.000000
     1.6025      0.000040
     1.6030      0.000550
     1.6035      0.000250
     1.6040      0.000000
     1.6045      0.000200
     1.6050      0.000850
     1.6055      0.000320
     1.6060      0.000000
     1.6065      0.000000
     1.6070      0.000000
     1.6075      0.000780
     1.6080      0.000270
     1.6085      0.000100
     1.6090      0.000000
     1.6095      0.000400
     1.6100      0.000370
     1.6105      0.000150
     1.6110      0.000000
     1.6115      0.000090
     1.6120      0.000160
     1.6125      0.000300
     1.6130      0.001200
     1.6135      0.000190
     1.6140      0.000030
     1.6145      0.000090
     1.6150      0.000000
     1.6155      0.000000
     1.6160      0.000000
     1.6165      0.000000
     1.6170      0.000160
     1.6175      0.000340
     1.6180      0.000020
     1.6185      0.000000
     1.6190      0.000000
     1.6195      0.000000
     1.6200      0.000000
     1.6205      0.000000
     1.6210      0.000320
     1.6215      0.000110
     1.6220      0.000120
     1.6225      0.000500
     1.6230      0.000750
     1.6235      0.000690
     1.6240      0.000450
     1.6245      0.001520
     1.6250      0.000710
     1.6255      0.000260
     1.6260      0.000400
     1.6265      0.001480
     1.6270      0.001250
     1.6275      0.001140
     1.6280      0.001280
     1.6285      0.001270
     1.6290      0.001120
     1.6295      0.001190
     1.6300      0.001610
     1.6305      0.001910
     1.6310      0.001090
     1.6315      0.001030
     1.6320      0.001450
     1.6325      0.001100
     1.6330      0.001490
     1.6335      0.001100
     1.6340      0.001330
     1.6345      0.001110
     1.6350      0.001030
     1.6355      0.000680
     1.6360      0.000270
     1.6365      0.000230
     1.6370      0.000830
     1.6375      0.000420
     1.6380      0.000430
     1.6385      0.000060
     1.6390      0.000000
     1.6395      0.000000
     1.6400      0.000120
     1.6405      0.000520
     1.6410      0.000510
     1.6415      0.000000
     1.6420      0.000050
     1.6425      0.000720
     1.6430      0.001150
     1.6435      0.000220
     1.6440      0.000090
     1.6445      0.000000
     1.6450      0.000000
     1.6455      0.000000
     1.6460      0.000170
     1.6465      0.000000
     1.6470      0.000000
     1.6475      0.000000
     1.6480      0.000000
     1.6485      0.000000
     1.6490      0.000300
     1.6495      0.000200
     1.6500      0.000260
     1.6505      0.000250
     1.6510      0.000060
     1.6515      0.000000
     1.6520      0.000030
     1.6525      0.000180
     1.6530      0.000030
     1.6535      0.000440
     1.6540      0.000080
     1.6545      0.000040
     1.6550      0.000010
     1.6555      0.000000
     1.6560      0.000000
     1.6565      0.000020
     1.6570      0.000320
     1.6575      0.000000
     1.6580      0.000000
     1.6585      0.000000
     1.6590      0.000290
     1.6595      0.000710
     1.6600      0.000200
     1.6605      0.000010
     1.6610      0.000000
     1.6615      0.000460
     1.6620      0.000210
     1.6625      0.000120
     1.6630      0.000550
     1.6635      0.000360
     1.6640      0.000360
     1.6645      0.000550
     1.6650      0.000590
     1.6655      0.000040
     1.6660      0.000460
     1.6665      0.000010
     1.6670      0.000000
     1.6675      0.000000
     1.6680      0.000050
     1.6685      0.000300
     1.6690      0.000190
     1.6695      0.000060
     1.6700      0.000000
     1.6705      0.000000
     1.6710      0.000090
     1.6715      0.000200
     1.6720      0.000100
     1.6725      0.000010
     1.6730      0.000160
     1.6735      0.000010
     1.6740      0.000070
     1.6745      0.000000
     1.6750      0.000000
     1.6755      0.000000
     1.6760      0.000000
     1.6765      0.000000
     1.6770      0.000000
     1.6775      0.000000
     1.6780      0.000280
     1.6785      0.000010
     1.6790      0.000350
     1.6795      0.000080
     1.6800      0.000000
     1.6805      0.000000
     1.6810      0.000000
     1.6815      0.000090
     1.6820      0.000000
     1.6825      0.000000
     1.6830      0.000000
     1.6835      0.000000
     1.6840      0.000000
     1.6845      0.000000
     1.6850      0.000000
     1.6855      0.000130
     1.6860      0.000000
     1.6865      0.000000
     1.6870      0.000000
     1.6875      0.000000
     1.6880      0.000000
     1.6885      0.000000
     1.6890      0.000000
     1.6895      0.000180
     1.6900      0.000190
     1.6905      0.000000
     1.6910      0.000010
     1.6915      0.000250
     1.6920      0.000000
     1.6925      0.000000
     1.6930      0.000010
     1.6935      0.000170
     1.6940      0.000000
     1.6945      0.000430
     1.6950      0.000150
     1.6955      0.000090
     1.6960      0.000160
     1.6965      0.000440
     1.6970      0.000080
     1.6975      0.000090
     1.6980      0.000290
     1.6985      0.000560
     1.6990      0.000030
     1.6995      0.000000
     1.7000      0.000010
     1.7005      0.000000
     1.7010      0.000000
     1.7015      0.000000
     1.7020      0.000000
     1.7025      0.000000
     1.7030      0.000000
     1.7035      0.000000
     1.7040      0.000000
     1.7045      0.000000
     1.7050      0.000110
     1.7055      0.000000
     1.7060      0.000150
     1.7065      0.000000
     1.7070      0.000130
     1.7075      0.000000
     1.7080      0.000060
     1.7085      0.000430
     1.7090      0.000570
     1.7095      0.000130
     1.7100      0.000400
     1.7105      0.000050
     1.7110      0.000310
     1.7115      0.000020
     1.7120      0.000000
     1.7125      0.000000
     1.7130      0.000000
     1.7135      0.000000
     1.7140      0.000000
     1.7145      0.000000
     1.7150      0.000000
     1.7155      0.000100
     1.7160      0.000680
     1.7165      0.000580
     1.7170      0.000090
     1.7175      0.000100
     1.7180      0.000020
     1.7185      0.000010
     1.7190      0.000000
     1.7195      0.000000
     1.7200      0.000000
     1.7205      0.000230
     1.7210      0.000210
     1.7215      0.000390
     1.7220      0.000770
     1.7225      0.000720
     1.7230      0.000790
     1.7235      0.000450
     1.7240      0.000370
     1.7245      0.000000
     1.7250      0.000110
     1.7255      0.000000
     1.7260      0.000020
     1.7265      0.000410
     1.7270      0.000400
     1.7275      0.000300
     1.7280      0.000000
     1.7285      0.000000
     1.7290      0.000000
     1.7295      0.000000
     1.7300      0.000190
     1.7305      0.000760
     1.7310      0.000220
     1.7315      0.000190
     1.7320      0.000560
     1.7325      0.000100
     1.7330      0.000170
     1.7335      0.000500
     1.7340      0.000000
     1.7345      0.000000
     1.7350      0.000000
     1.7355      0.000000
     1.7360      0.000130
     1.7365      0.000060
     1.7370      0.000000
     1.7375      0.000200
     1.7380      0.000030
     1.7385      0.000000
     1.7390      0.000330
     1.7395      0.000820
     1.7400      0.000050
     1.7405      0.000000
     1.7410      0.000000
     1.7415      0.000000
     1.7420      0.000180
     1.7425      0.000000
     1.7430      0.000000
     1.7435      0.000010
     1.7440      0.000000
     1.7445      0.000000
     1.7450      0.000000
     1.7455      0.000130
     1.7460      0.000070
     1.7465      0.000000
     1.7470      0.000000
     1.7475      0.000000
     1.7480      0.000000
     1.7485      0.000000
     1.7490      0.000000
     1.7495      0.000040
     1.7500      0.000000
     1.7505      0.000000
     1.7510      0.000020
     1.7515      0.000380
     1.7520      0.000110
     1.7525      0.000000
     1.7530      0.000000
     1.7535      0.000000
     1.7540      0.000050
     1.7545      0.000000
     1.7550      0.000000
     1.7555      0.000000
     1.7560      0.000000
     1.7565      0.000000
     1.7570      0.000060
     1.7575      0.000000
     1.7580      0.000000
     1.7585      0.000040
     1.7590      0.000390
     1.7595      0.000030
     1.7600      0.000020
     1.7605      0.000050
     1.7610      0.000000
     1.7615      0.000000
     1.7620      0.000000
     1.7625      0.000000
     1.7630      0.000200
     1.7635      0.000160
     1.7640      0.000640
     1.7645      0.000390
     1.7650      0.000000
     1.7655      0.000000
     1.7660      0.000280
     1.7665      0.000730
     1.7670      0.000910
     1.7675      0.000010
     1.7680      0.000430
     1.7685      0.000470
     1.7690      0.000510
     1.7695      0.000280
     1.7700      0.000360
     1.7705      0.000530
     1.7710      0.000130
     1.7715      0.000000
     1.7720      0.000000
     1.7725      0.000020
     1.7730      0.000220
     1.7735      0.000270
     1.7740      0.000000
     1.7745      0.000010
     1.7750      0.000330
     1.7755      0.000090
     1.7760      0.000000
     1.7765      0.000000
     1.7770      0.000200
     1.7775      0.000380
     1.7780      0.000000
     1.7785      0.000000
     1.7790      0.000000
     1.7795      0.000000
     1.7800      0.000300
     1.7805      0.000320
     1.7810      0.000000
     1.7815      0.000000
     1.7820      0.000000
     1.7825      0.000000
     1.7830      0.000000
     1.7835      0.000200
     1.7840      0.000670
     1.7845      0.000180
     1.7850      0.000160
     1.7855      0.000160
     1.7860      0.000120
     1.7865      0.000200
     1.7870      0.000030
     1.7875      0.000410
     1.7880      0.000560
     1.7885      0.000880
     1.7890      0.000790
     1.7895      0.000420
     1.7900      0.000240
     1.7905      0.000620
     1.7910      0.000530
     1.7915      0.000340
     1.7920      0.000040
     1.7925      0.000430
     1.7930      0.000170
     1.7935      0.000640
     1.7940      0.000780
     1.7945      0.000090
     1.7950      0.000020
     1.7955      0.000080
     1.7960      0.000200
     1.7965      0.000290
     1.7970      0.000010
     1.7975      0.000000
     1.7980      0.000030
     1.7985      0.000410
     1.7990      0.000900
     1.7995      0.000360
     1.8000      0.000000
     1.8005      0.000000
     1.8010      0.000000
     1.8015      0.000110
     1.8020      0.000000
     1.8025      0.000260
     1.8030      0.000300
     1.8035      0.000110
     1.8040      0.000540
     1.8045      0.000120
     1.8050      0.000050
     1.8055      0.000150
     1.8060      0.000520
     1.8065      0.000490
     1.8070      0.000010
     1.8075      0.000000
     1.8080      0.000000
     1.8085      0.000160
     1.8090      0.000000
     1.8095      0.000180
     1.8100      0.000230
     1.8105      0.000020
     1.8110      0.000000
     1.8115      0.000020
     1.8120      0.000150
     1.8125      0.000040
     1.8130      0.000640
     1.8135      0.000920
     1.8140      0.000710
     1.8145      0.000210
     1.8150      0.000040
     1.8155      0.000000
     1.8160      0.000020
     1.8165      0.000340
     1.8170      0.000290
     1.8175      0.000020
     1.8180      0.000000
     1.8185      0.000060
     1.8190      0.000000
     1.8195      0.000160
     1.8200      0.000900
     1.8205      0.000940
     1.8210      0.000410
     1.8215      0.000180
     1.8220      0.000110
     1.8225      0.000000
     1.8230      0.000100
     1.8235      0.000090
     1.8240      0.000060
     1.8245      0.000500
     1.8250      0.000500
     1.8255      0.000240
     1.8260      0.000050
     1.8265      0.000000
     1.8270      0.000000
     1.8275      0.000170
     1.8280      0.000130
     1.8285      0.000350
     1.8290      0.000240
     1.8295      0.000210
     1.8300      0.000940
     1.8305      0.000300
     1.8310      0.000190
     1.8315      0.000000
     1.8320      0.000210
     1.8325      0.000000
     1.8330      0.000040
     1.8335      0.000000
     1.8340      0.000000
     1.8345      0.000010
     1.8350      0.000210
     1.8355      0.000060
     1.8360      0.000110
     1.8365      0.000160
     1.8370      0.000320
     1.8375      0.000000
     1.8380      0.000140
     1.8385      0.000050
     1.8390      0.000170
     1.8395      0.001110
     1.8400      0.000450
     1.8405      0.000060
     1.8410      0.000390
     1.8415      0.000170
     1.8420      0.000130
     1.8425      0.000000
     1.8430      0.000000
     1.8435      0.000010
     1.8440      0.000090
     1.8445      0.000300
     1.8450      0.000240
     1.8455      0.000000
     1.8460      0.000000
     1.8465      0.000200
     1.8470      0.000240
     1.8475      0.000000
     1.8480      0.000000
     1.8485      0.000000
     1.8490      0.000000
     1.8495      0.000110
     1.8500      0.000170
     1.8505      0.000690
     1.8510      0.000360
     1.8515      0.000110
     1.8520      0.000000
     1.8525      0.000000
     1.8530      0.000080
     1.8535      0.000570
     1.8540      0.000290
     1.8545      0.000340
     1.8550      0.000240
     1.8555      0.000280
     1.8560      0.000040
     1.8565      0.000200
     1.8570      0.000590
     1.8575      0.000410
     1.8580      0.000560
     1.8585      0.000200
     1.8590      0.000130
     1.8595      0.000520
     1.8600      0.000190
     1.8605      0.000440
     1.8610      0.000580
     1.8615      0.000070
     1.8620      0.000000
     1.8625      0.000040
     1.8630      0.000080
     1.8635      0.000210
     1.8640      0.000110
     1.8645      0.000100
     1.8650      0.000010
     1.8655      0.000000
     1.8660      0.000000
     1.8665      0.000170
     1.8670      0.000400
     1.8675      0.000280
     1.8680      0.000440
     1.8685      0.000310
     1.8690      0.000130
     1.8695      0.000450
     1.8700      0.000110
     1.8705      0.000060
     1.8710      0.000080
     1.8715      0.000230
     1.8720      0.000020
     1.8725      0.000170
     1.8730      0.000830
     1.8735      0.001030
     1.8740      0.000400
     1.8745      0.000290
     1.8750      0.000820
     1.8755      0.000490
     1.8760      0.000510
     1.8765      0.000810
     1.8770      0.001070
     1.8775      0.001000
     1.8780      0.000760
     1.8785      0.000940
     1.8790      0.000780
     1.8795      0.000340
     1.8800      0.000420
     1.8805      0.000720
     1.8810      0.000500
     1.8815      0.000190
     1.8820      0.000590
     1.8825      0.001160
     1.8830      0.001310
     1.8835      0.000670
     1.8840      0.000400
     1.8845      0.000450
     1.8850      0.000420
     1.8855      0.000230
     1.8860      0.000000
     1.8865      0.000010
     1.8870      0.000210
     1.8875      0.000180
     1.8880      0.000000
     1.8885      0.000390
     1.8890      0.000590
     1.8895      0.000500
     1.8900      0.000700
     1.8905      0.000580
     1.8910      0.000910
     1.8915      0.000740
     1.8920      0.000600
     1.8925      0.000760
     1.8930      0.000770
     1.8935      0.000490
     1.8940      0.000920
     1.8945      0.000950
     1.8950      0.000570
     1.8955      0.000560
     1.8960      0.000850
     1.8965      0.000430
     1.8970      0.000610
     1.8975      0.000790
     1.8980      0.000130
     1.8985      0.000250
     1.8990      0.000420
     1.8995      0.000620
     1.9000      0.000270
     1.9005      0.000250
     1.9010      0.000500
     1.9015      0.000120
     1.9020      0.000060
     1.9025      0.000680
     1.9030      0.000640
     1.9035      0.000290
     1.9040      0.000680
     1.9045      0.000390
     1.9050      0.000010
     1.9055      0.000410
     1.9060      0.000510
     1.9065      0.000790
     1.9070      0.000890
     1.9075      0.000820
     1.9080      0.000680
     1.9085      0.000780
     1.9090      0.000520
     1.9095      0.000550
     1.9100      0.001000
     1.9105      0.001250
     1.9110      0.000800
     1.9115      0.000670
     1.9120      0.000670
     1.9125      0.000640
     1.9130      0.000470
     1.9135      0.000460
     1.9140      0.001020
     1.9145      0.000830
     1.9150      0.000400
     1.9155      0.000690
     1.9160      0.000980
     1.9165      0.000740
     1.9170      0.000850
     1.9175      0.000450
     1.9180      0.000690
     1.9185      0.000820
     1.9190      0.000800
     1.9195      0.000680
     1.9200      0.000370
     1.9205      0.000590
     1.9210      0.000710
     1.9215      0.000210
     1.9220      0.000030
     1.9225      0.000480
     1.9230      0.000330
     1.9235      0.000300
     1.9240      0.000450
     1.9245      0.000050
     1.9250      0.000030
     1.9255      0.000110
     1.9260      0.000100
     1.9265      0.000040
     1.9270      0.000000
     1.9275      0.000000
     1.9280      0.000140
     1.9285      0.000580
     1.9290      0.000520
     1.9295      0.000340
     1.9300      0.000640
     1.9305      0.000280
     1.9310      0.000000
     1.9315      0.000000
     1.9320      0.000160
     1.9325      0.000660
     1.9330      0.000470
     1.9335      0.000270
     1.9340      0.000240
     1.9345      0.000010
     1.9350      0.000270
     1.9355      0.000120
     1.9360      0.000000
     1.9365      0.000000
     1.9370      0.000000
     1.9375      0.000030
     1.9380      0.000050
     1.9385      0.000000
     1.9390      0.000100
     1.9395      0.000260
     1.9400      0.000130
     1.9405      0.000250
     1.9410      0.000290
     1.9415      0.000070
     1.9420      0.000250
     1.9425      0.000280
     1.9430      0.000000
     1.9435      0.000170
     1.9440      0.000420
     1.9445      0.000330
     1.9450      0.000550
     1.9455      0.000000
     1.9460      0.000000
     1.9465      0.000000
     1.9470      0.000360
     1.9475      0.000610
     1.9480      0.000980
     1.9485      0.000470
     1.9490      0.000340
     1.9495      0.000370
     1.9500      0.000360
     1.9505      0.000220
     1.9510      0.000000
     1.9515      0.000020
     1.9520      0.000340
     1.9525      0.000480
     1.9530      0.000630
     1.9535      0.000810
     1.9540      0.000600
     1.9545      0.000200
     1.9550      0.000180
     1.9555      0.000190
     1.9560      0.000540
     1.9565      0.000490
     1.9570      0.000430
     1.9575      0.000640
     1.9580      0.000600
     1.9585      0.000220
     1.9590      0.000000
     1.9595      0.000340
     1.9600      0.000410
     1.9605      0.000460
     1.9610      0.000650
     1.9615      0.000890
     1.9620      0.000730
     1.9625      0.000320
     1.9630      0.000050
     1.9635      0.000030
     1.9640      0.000290
     1.9645      0.000060
     1.9650      0.000030
     1.9655      0.000420
     1.9660      0.000350
     1.9665      0.000040
     1.9670      0.000000
     1.9675      0.000230
     1.9680      0.000450
     1.9685      0.000020
     1.9690      0.000370
     1.9695      0.000690
     1.9700      0.000220
     1.9705      0.000000
     1.9710      0.000450
     1.9715      0.000410
     1.9720      0.000020
     1.9725      0.000050
     1.9730      0.000370
     1.9735      0.000270
     1.9740      0.000050
     1.9745      0.000330
     1.9750      0.000060
     1.9755      0.000050
     1.9760      0.000470
     1.9765      0.000440
     1.9770      0.000230
     1.9775      0.000210
     1.9780      0.000020
     1.9785      0.000030
     1.9790      0.000260
     1.9795      0.000210
     1.9800      0.000000
     1.9805      0.000000
     1.9810      0.000220
     1.9815      0.000530
     1.9820      0.000470
     1.9825      0.000350
     1.9830      0.000360
     1.9835      0.000280
     1.9840      0.000210
     1.9845      0.000170
     1.9850      0.000470
     1.9855      0.000630
     1.9860      0.000600
     1.9865      0.000210
     1.9870      0.000000
     1.9875      0.000130
     1.9880      0.000340
     1.9885      0.000170
     1.9890      0.000110
     1.9895      0.000120
     1.9900      0.000000
     1.9905      0.000000
     1.9910      0.000000
     1.9915      0.000070
     1.9920      0.000020
     1.9925      0.000080
     1.9930      0.000340
     1.9935      0.000570
     1.9940      0.000370
     1.9945      0.000060
     1.9950      0.000420
     1.9955      0.000250
     1.9960      0.000420
     1.9965      0.000610
     1.9970      0.000690
     1.9975      0.000270
     1.9980      0.000150
     1.9985      0.000380
     1.9990      0.000200
     1.9995      0.000420
     2.0000      0.000350
     2.0005      0.000050
     2.0010      0.000100
     2.0015      0.000380
     2.0020      0.000110
     2.0025      0.000000
     2.0030      0.000070
     2.0035      0.000280
     2.0040      0.000340
     2.0045      0.000460
     2.0050      0.000510
     2.0055      0.000210
     2.0060      0.000120
     2.0065      0.000270
     2.0070      0.000080
     2.0075      0.000000
     2.0080      0.000160
     2.0085      0.000390
     2.0090      0.000330
     2.0095      0.000130
     2.0100      0.000110
     2.0105      0.000220
     2.0110      0.000310
     2.0115      0.000560
     2.0120      0.000610
     2.0125      0.000950
     2.0130      0.000900
     2.0135      0.000500
     2.0140      0.000670
     2.0145      0.000910
     2.0150      0.000440
     2.0155      0.000230
     2.0160      0.000380
     2.0165      0.001010
     2.0170      0.001030
     2.0175      0.000400
     2.0180      0.000030
     2.0185      0.000310
     2.0190      0.000820
     2.0195      0.001260
     2.0200      0.001360
     2.0205      0.001600
     2.0210      0.001780
     2.0215      0.001800
     2.0220      0.002350
     2.0225      0.002680
     2.0230      0.002760
     2.0235      0.002870
     2.0240      0.002860
     2.0245      0.003200
     2.0250      0.003320
     2.0255      0.003080
     2.0260      0.003080
     2.0265      0.003230
     2.0270      0.003090
     2.0275      0.003020
     2.0280      0.003630
     2.0285      0.003970
     2.0290      0.003690
     2.0295      0.003450
     2.0300      0.003350
     2.0305      0.003510
     2.0310      0.003580
     2.0315      0.003610
     2.0320      0.003880
     2.0325      0.003430
     2.0330      0.003370
     2.0335      0.003670
     2.0340      0.003500
     2.0345      0.003460
     2.0350      0.003600
     2.0355      0.003480
     2.0360      0.003500
     2.0365      0.003300
     2.0370      0.002920
     2.0375      0.002830
     2.0380      0.002700
     2.0385      0.002730
     2.0390      0.002690
     2.0395      0.002700
     2.0400      0.003040
     2.0405      0.003050
     2.0410      0.003040
     2.0415      0.002990
     2.0420      0.002870
     2.0425      0.003000
     2.0430      0.003260
     2.0435      0.003270
     2.0440      0.003190
     2.0445      0.003030
     2.0450      0.002870
     2.0455      0.003120
     2.0460      0.003010
     2.0465      0.002730
     2.0470      0.003090
     2.0475      0.003420
     2.0480      0.002940
     2.0485      0.003000
     2.0490      0.003170
     2.0495      0.002590
     2.0500      0.002050
     2.0505      0.002330
     2.0510      0.002710
     2.0515      0.003200
     2.0520      0.003600
     2.0525      0.003410
     2.0530      0.003230
     2.0535      0.002960
     2.0540      0.002980
     2.0545      0.002840
     2.0550      0.002890
     2.0555      0.002490
     2.0560      0.001600
     2.0565      0.001410
     2.0570      0.001730
     2.0575      0.001970
     2.0580      0.001660
     2.0585      0.001180
     2.0590      0.000950
     2.0595      0.000920
     2.0600      0.000830
     2.0605      0.000690
     2.0610      0.000980
     2.0615      0.000980
     2.0620      0.000400
     2.0625      0.000320
     2.0630      0.000070
     2.0635      0.000000
     2.0640      0.000130
     2.0645      0.000320
     2.0650      0.000380
     2.0655      0.000280
     2.0660      0.000290
     2.0665      0.000550
     2.0670      0.000470
     2.0675      0.000440
     2.0680      0.000280
     2.0685      0.000000
     2.0690      0.000000
     2.0695      0.000090
     2.0700      0.000230
     2.0705      0.000190
     2.0710      0.000370
     2.0715      0.000800
     2.0720      0.000720
     2.0725      0.000100
     2.0730      0.000000
     2.0735      0.000060
     2.0740      0.000250
     2.0745      0.000190
     2.0750      0.000080
     2.0755      0.000040
     2.0760      0.000210
     2.0765      0.000040
     2.0770      0.000000
     2.0775      0.000000
     2.0780      0.000000
     2.0785      0.000040
     2.0790      0.000310
     2.0795      0.000490
     2.0800      0.000150
     2.0805      0.000140
     2.0810      0.000350
     2.0815      0.000210
     2.0820      0.000350
     2.0825      0.000610
     2.0830      0.000740
     2.0835      0.000510
     2.0840      0.000520
     2.0845      0.001010
     2.0850      0.001110
     2.0855      0.000400
     2.0860      0.000000
     2.0865      0.000000
     2.0870      0.000000
     2.0875      0.000110
     2.0880      0.000220
     2.0885      0.000210
     2.0890      0.000000
     2.0895      0.000000
     2.0900      0.000030
     2.0905      0.000070
     2.0910      0.000040
     2.0915      0.000060
     2.0920      0.000060
     2.0925      0.000200
     2.0930      0.000380
     2.0935      0.000430
     2.0940      0.000520
     2.0945      0.000500
     2.0950      0.000560
     2.0955      0.000310
     2.0960      0.000160
     2.0965      0.000500
     2.0970      0.000720
     2.0975      0.000410
     2.0980      0.000050
     2.0985      0.000080
     2.0990      0.000150
     2.0995      0.000030
     2.1000      0.000090
     2.1005      0.000380
     2.1010      0.000420
     2.1015      0.000490
     2.1020      0.000520
     2.1025      0.000130
     2.1030      0.000000
     2.1035      0.000000
     2.1040      0.000000
     2.1045      0.000000
     2.1050      0.000020
     2.1055      0.000310
     2.1060      0.000220
     2.1065      0.000000
     2.1070      0.000000
     2.1075      0.000000
     2.1080      0.000020
     2.1085      0.000150
     2.1090      0.000000
     2.1095      0.000000
     2.1100      0.000000
     2.1105      0.000000
     2.1110      0.000000
     2.1115      0.000000
     2.1120      0.000000
     2.1125      0.000000
     2.1130      0.000000
     2.1135      0.000070
     2.1140      0.000180
     2.1145      0.000010
     2.1150      0.000160
     2.1155      0.000220
     2.1160      0.000020
     2.1165      0.000000
     2.1170      0.000220
     2.1175      0.000230
     2.1180      0.000150
     2.1185      0.000450
     2.1190      0.000810
     2.1195      0.001000
     2.1200      0.001340
     2.1205      0.001140
     2.1210      0.001160
     2.1215      0.001050
     2.1220      0.000670
     2.1225      0.000850
     2.1230      0.001380
     2.1235      0.002010
     2.1240      0.001940
     2.1245      0.001680
     2.1250      0.001800
     2.1255      0.001780
     2.1260      0.001680
     2.1265      0.001820
     2.1270      0.001710
     2.1275      0.001410
     2.1280      0.001640
     2.1285      0.001570
     2.1290      0.001170
     2.1295      0.001250
     2.1300      0.001470
     2.1305      0.001600
     2.1310      0.001580
     2.1315      0.001560
     2.1320      0.001590
     2.1325      0.001400
     2.1330      0.001220
     2.1335      0.001290
     2.1340      0.001510
     2.1345      0.001400
     2.1350      0.001000
     2.1355      0.000670
     2.1360      0.000500
     2.1365      0.000580
     2.1370      0.001090
     2.1375      0.001800
     2.1380      0.001770
     2.1385      0.001490
     2.1390      0.001480
     2.1395      0.001700
     2.1400      0.001950
     2.1405      0.002040
     2.1410      0.002400
     2.1415      0.002830
     2.1420      0.002880
     2.1425      0.002520
     2.1430      0.002460
     2.1435      0.002980
     2.1440      0.003400
     2.1445      0.003360
     2.1450      0.003410
     2.1455      0.003630
     2.1460      0.003800
     2.1465      0.004280
     2.1470      0.004770
     2.1475      0.005660
     2.1480      0.006550
     2.1485      0.007270
     2.1490      0.008490
     2.1495      0.009250
     2.1500      0.010090
     2.1505      0.011800
     2.1510      0.013970
     2.1515      0.016480
     2.1520      0.019870
     2.1525      0.024370
     2.1530      0.029960
     2.1535      0.037270
     2.1540      0.046730
     2.1545      0.059290
     2.1550      0.076460
     2.1555      0.099270
     2.1560      0.129400
     2.1565      0.168930
     2.1570      0.220200
     2.1575      0.285710
     2.1580      0.367130
     2.1585      0.461980
     2.1590      0.563600
     2.1595      0.663510
     2.1600      0.752110
     2.1605      0.821870
     2.1610      0.869780
     2.1615      0.897630
     2.1620      0.910680
     2.1625      0.914840
     2.1630      0.914640
     2.1635      0.913010
     2.1640      0.911060
     2.1645      0.910320
     2.1650      0.911510
     2.1655      0.913370
     2.1660      0.916630
     2.1665      0.920960
     2.1670      0.924480
     2.1675      0.927810
     2.1680      0.930660
     2.1685      0.932650
     2.1690      0.934020
     2.1695      0.934780
     2.1700      0.935200
     2.1705      0.935230
     2.1710      0.934700
     2.1715      0.934220
     2.1720      0.934300
     2.1725      0.933980
     2.1730      0.934000
     2.1735      0.935480
     2.1740      0.937620
     2.1745      0.939670
     2.1750      0.942290
     2.1755      0.945880
     2.1760      0.949670
     2.1765      0.952900
     2.1770      0.955780
     2.1775      0.958980
     2.1780      0.961550
     2.1785      0.962980
     2.1790      0.963470
     2.1795      0.963550
     2.1800      0.963110
     2.1805      0.960910
     2.1810      0.957300
     2.1815      0.952830
     2.1820      0.947740
     2.1825      0.942440
     2.1830      0.937300
     2.1835      0.932460
     2.1840      0.927560
     2.1845      0.923410
     2.1850      0.919530
     2.1855      0.915580
     2.1860      0.912850
     2.1865      0.911590
     2.1870      0.911400
     2.1875      0.912020
     2.1880      0.913540
     2.1885      0.915240
     2.1890      0.917520
     2.1895      0.920800
     2.1900      0.923520
     2.1905      0.925940
     2.1910      0.928590
     2.1915      0.930500
     2.1920      0.931520
     2.1925      0.931910
     2.1930      0.931390
     2.1935      0.929660
     2.1940      0.926280
     2.1945      0.921230
     2.1950      0.914050
     2.1955      0.903810
     2.1960      0.890490
     2.1965      0.872190
     2.1970      0.846420
     2.1975      0.811920
     2.1980      0.767150
     2.1985      0.710910
     2.1990      0.643860
     2.1995      0.569090
     2.2000      0.490660
     2.2005      0.412260
     2.2010      0.338320
     2.2015      0.273000
     2.2020      0.218190
     2.2025      0.172830
     2.2030      0.136200
     2.2035      0.107460
     2.2040      0.085260
     2.2045      0.067860
     2.2050      0.054310
     2.2055      0.043970
     2.2060      0.035750
     2.2065      0.029130
     2.2070      0.023980
     2.2075      0.020100
     2.2080      0.017300
     2.2085      0.014850
     2.2090      0.012380
     2.2095      0.010530
     2.2100      0.009480
     2.2105      0.008710
     2.2110      0.007650
     2.2115      0.006490
     2.2120      0.005890
     2.2125      0.005630
     2.2130      0.005150
     2.2135      0.004870
     2.2140      0.004680
     2.2145      0.004240
     2.2150      0.004100
     2.2155      0.004030
     2.2160      0.003720
     2.2165      0.003290
     2.2170      0.002600
     2.2175      0.002350
     2.2180      0.002870
     2.2185      0.003050
     2.2190      0.002570
     2.2195      0.002090
     2.2200      0.001930
     2.2205      0.001750
     2.2210      0.001500
     2.2215      0.001320
     2.2220      0.001300
     2.2225      0.001560
     2.2230      0.001840
     2.2235      0.002040
     2.2240      0.002230
     2.2245      0.002160
     2.2250      0.002090
     2.2255      0.001960
     2.2260      0.001790
     2.2265      0.002020
     2.2270      0.001950
     2.2275      0.001650
     2.2280      0.001860
     2.2285      0.002300
     2.2290      0.002410
     2.2295      0.001940
     2.2300      0.001780
     2.2305      0.002450
     2.2310      0.002940
     2.2315      0.003100
     2.2320      0.003300
     2.2325      0.003070
     2.2330      0.002650
     2.2335      0.002470
     2.2340      0.002250
     2.2345      0.002140
     2.2350      0.002110
     2.2355      0.002180
     2.2360      0.002290
     2.2365      0.002040
     2.2370      0.001870
     2.2375      0.002030
     2.2380      0.002120
     2.2385      0.002010
     2.2390      0.001710
     2.2395      0.001530
     2.2400      0.001650
     2.2405      0.001820
     2.2410      0.001650
     2.2415      0.001320
     2.2420      0.001400
     2.2425      0.001560
     2.2430      0.001520
     2.2435      0.001860
     2.2440      0.002110
     2.2445      0.001860
     2.2450      0.001690
     2.2455      0.001600
     2.2460      0.001250
     2.2465      0.000900
     2.2470      0.000920
     2.2475      0.001310
     2.2480      0.001310
     2.2485      0.000760
     2.2490      0.000270
     2.2495      0.000100
     2.2500      0.000180
     2.2505      0.000110
     2.2510      0.000000
     2.2515      0.000240
     2.2520      0.000380
     2.2525      0.000330
     2.2530      0.000360
     2.2535      0.000250
     2.2540      0.000150
     2.2545      0.000410
     2.2550      0.000590
     2.2555      0.000460
     2.2560      0.000320
     2.2565      0.000090
     2.2570      0.000110
     2.2575      0.000610
     2.2580      0.000810
     2.2585      0.000530
     2.2590      0.000280
     2.2595      0.000100
     2.2600      0.000100
     2.2605      0.000410
     2.2610      0.000640
     2.2615      0.000730
     2.2620      0.000630
     2.2625      0.000610
     2.2630      0.000690
     2.2635      0.000390
     2.2640      0.000430
     2.2645      0.000940
     2.2650      0.000920
     2.2655      0.000470
     2.2660      0.000320
     2.2665      0.000510
     2.2670      0.000670
     2.2675      0.000640
     2.2680      0.000700
     2.2685      0.000940
     2.2690      0.000880
     2.2695      0.000650
     2.2700      0.000750
     2.2705      0.000750
     2.2710      0.000420
     2.2715      0.000110
     2.2720      0.000380
     2.2725      0.001090
     2.2730      0.001180
     2.2735      0.000920
     2.2740      0.000940
     2.2745      0.000810
     2.2750      0.000520
     2.2755      0.000420
     2.2760      0.000510
     2.2765      0.000630
     2.2770      0.000660
     2.2775      0.000770
     2.2780      0.001020
     2.2785      0.001120
     2.2790      0.000880
     2.2795      0.000400
     2.2800      0.000270
     2.2805      0.000620
     2.2810      0.000650
     2.2815      0.000520
     2.2820      0.000670
     2.2825      0.000660
     2.2830      0.000590
     2.2835      0.000760
     2.2840      0.000840
     2.2845      0.000610
     2.2850      0.000260
     2.2855      0.000260
     2.2860      0.000760
     2.2865      0.001080
     2.2870      0.000660
     2.2875      0.000270
     2.2880      0.000520
     2.2885      0.000550
     2.2890      0.000260
     2.2895      0.000270
     2.2900      0.000210
     2.2905      0.000040
     2.2910      0.000110
     2.2915      0.000060
     2.2920      0.000000
     2.2925      0.000000
     2.2930      0.000000
     2.2935      0.000070
     2.2940      0.000070
     2.2945      0.000120
     2.2950      0.000010
     2.2955      0.000000
     2.2960      0.000000
     2.2965      0.000000
     2.2970      0.000000
     2.2975      0.000000
     2.2980      0.000000
     2.2985      0.000000
     2.2990      0.000000
     2.2995      0.000000
     2.3000      0.000290
     2.3005      0.000580
     2.3010      0.000530
     2.3015      0.000520
     2.3020      0.000620
     2.3025      0.000450
     2.3030      0.000180
     2.3035      0.000200
     2.3040      0.000410
     2.3045      0.000640
     2.3050      0.000710
     2.3055      0.000470
     2.3060      0.000250
     2.3065      0.000320
     2.3070      0.000480
     2.3075      0.000650
     2.3080      0.000680
     2.3085      0.000420
     2.3090      0.000160
     2.3095      0.000200
     2.3100      0.000530
     2.3105      0.000780
     2.3110      0.000590
     2.3115      0.000060
     2.3120      0.000060
     2.3125      0.000590
     2.3130      0.000670
     2.3135      0.000600
     2.3140      0.000480
     2.3145      0.000150
     2.3150      0.000380
     2.3155      0.000780
     2.3160      0.001020
     2.3165      0.001280
     2.3170      0.001420
     2.3175      0.001470
     2.3180      0.001320
     2.3185      0.000920
     2.3190      0.000820
     2.3195      0.001310
     2.3200      0.001860
     2.3205      0.001810
     2.3210      0.001300
     2.3215      0.001000
     2.3220      0.001070
     2.3225      0.001260
     2.3230      0.001450
     2.3235      0.001480
     2.3240      0.001380
     2.3245      0.001520
     2.3250      0.001620
     2.3255      0.001430
     2.3260      0.001360
     2.3265      0.001270
     2.3270      0.001360
     2.3275      0.001850
     2.3280      0.001770
     2.3285      0.001450
     2.3290      0.001720
     2.3295      0.001930
     2.3300      0.001600
     2.3305      0.001300
     2.3310      0.001220
     2.3315      0.001210
     2.3320      0.001400
     2.3325      0.001540
     2.3330      0.001310
     2.3335      0.001030
     2.3340      0.001150
     2.3345      0.001390
     2.3350      0.001530
     2.3355      0.001680
     2.3360      0.001600
     2.3365      0.001250
     2.3370      0.000990
     2.3375      0.000870
     2.3380      0.000910
     2.3385      0.001180
     2.3390      0.001530
     2.3395      0.001680
     2.3400      0.001520
     2.3405      0.001290
     2.3410      0.001140
     2.3415      0.001010
     2.3420      0.001040
     2.3425      0.001330
     2.3430      0.001600
     2.3435      0.001560
     2.3440      0.001320
     2.3445      0.001110
     2.3450      0.000930
     2.3455      0.000750
     2.3460      0.000750
     2.3465      0.001140
     2.3470      0.001300
     2.3475      0.001070
     2.3480      0.001150
     2.3485      0.001130
     2.3490      0.000710
     2.3495      0.000380
     2.3500      0.000430
     2.3505      0.000680
     2.3510      0.000940
     2.3515      0.001210
     2.3520      0.001440
     2.3525      0.001510
     2.3530      0.001490
     2.3535      0.001540
     2.3540      0.001420
     2.3545      0.001210
     2.3550      0.001280
     2.3555      0.001420
     2.3560      0.001530
     2.3565      0.001610
     2.3570      0.001530
     2.3575      0.001520
     2.3580      0.001780
     2.3585      0.002020
     2.3590      0.002020
     2.3595      0.001960
     2.3600      0.002020
     2.3605      0.001980
     2.3610      0.001660
     2.3615      0.001410
     2.3620      0.001470
     2.3625      0.001470
     2.3630      0.001370
     2.3635      0.001350
     2.3640      0.001330
     2.3645      0.001340
     2.3650      0.001440
     2.3655      0.001380
     2.3660      0.001000
     2.3665      0.000600
     2.3670      0.000510
     2.3675      0.000520
     2.3680      0.000340
     2.3685      0.000110
     2.3690      0.000110
     2.3695      0.000360
     2.3700      0.000390
     2.3705      0.000180
     2.3710      0.000040
     2.3715      0.000000
     2.3720      0.000100
     2.3725      0.000230
     2.3730      0.000170
     2.3735      0.000000
     2.3740      0.000000
     2.3745      0.000060
     2.3750      0.000370
     2.3755      0.000290
     2.3760      0.000070
     2.3765      0.000140
     2.3770      0.000070
     2.3775      0.000030
     2.3780      0.000090
     2.3785      0.000070
     2.3790      0.000000
     2.3795      0.000100
     2.3800      0.000490
     2.3805      0.001110
     2.3810      0.001400
     2.3815      0.001400
     2.3820      0.001240
     2.3825      0.001100
     2.3830      0.001110
     2.3835      0.001040
     2.3840      0.000700
     2.3845      0.000250
     2.3850      0.000000
     2.3855      0.000000
     2.3860      0.000100
     2.3865      0.000490
     2.3870      0.000610
     2.3875      0.000570
     2.3880      0.000440
     2.3885      0.000280
     2.3890      0.000490
     2.3895      0.000820
     2.3900      0.000910
     2.3905      0.000710
     2.3910      0.000360
     2.3915      0.000000
     2.3920      0.000000
     2.3925      0.000000
     2.3930      0.000000
     2.3935      0.000000
     2.3940      0.000000
     2.3945      0.000190
     2.3950      0.000310
     2.3955      0.000180
     2.3960      0.000000
     2.3965      0.000010
     2.3970      0.000020
     2.3975      0.000000
     2.3980      0.000000
     2.3985      0.000000
     2.3990      0.000200
     2.3995      0.000600
     2.4000      0.000860
     2.4005      0.000700
     2.4010      0.000310
     2.4015      0.000170
     2.4020      0.000350
     2.4025      0.000270
     2.4030      0.000020
     2.4035      0.000000
     2.4040      0.000030
     2.4045      0.000530
     2.4050      0.000830
     2.4055      0.000670
     2.4060      0.000430
     2.4065      0.000350
     2.4070      0.000100
     2.4075      0.000000
     2.4080      0.000000
     2.4085      0.000200
     2.4090      0.000290
     2.4095      0.000180
     2.4100      0.000230
     2.4105      0.000590
     2.4110      0.000930
     2.4115      0.000910
     2.4120      0.000920
     2.4125      0.000990
     2.4130      0.000940
     2.4135      0.000830
     2.4140      0.000730
     2.4145      0.000750
     2.4150      0.000740
     2.4155      0.000550
     2.4160      0.000330
     2.4165      0.000520
     2.4170      0.000930
     2.4175      0.000840
     2.4180      0.000700
     2.4185      0.000680
     2.4190      0.000510
     2.4195      0.000230
     2.4200      0.000120
     2.4205      0.000260
     2.4210      0.000420
     2.4215      0.000500
     2.4220      0.000360
     2.4225      0.000320
     2.4230      0.000510
     2.4235      0.000750
     2.4240      0.000880
     2.4245      0.000990
     2.4250      0.001150
     2.4255      0.001050
     2.4260      0.000930
     2.4265      0.000970
     2.4270      0.000950
     2.4275      0.000920
     2.4280      0.000900
     2.4285      0.000790
     2.4290      0.000620
     2.4295      0.000750
     2.4300      0.000770
     2.4305      0.000620
     2.4310      0.000600
     2.4315      0.000610
     2.4320      0.000620
     2.4325      0.000640
     2.4330      0.000710
     2.4335      0.000620
     2.4340      0.000460
     2.4345      0.000500
     2.4350      0.000370
     2.4355      0.000140
     2.4360      0.000190
     2.4365      0.000530
     2.4370      0.000670
     2.4375      0.000310
     2.4380      0.000030
     2.4385      0.000000
     2.4390      0.000190
     2.4395      0.000430
     2.4400      0.000430
     2.4405      0.000200
     2.4410      0.000130
     2.4415      0.000570
     2.4420      0.000870
     2.4425      0.000580
     2.4430      0.000320
     2.4435      0.000440
     2.4440      0.000750
     2.4445      0.000850
     2.4450      0.000720
     2.4455      0.000760
     2.4460      0.000750
     2.4465      0.000670
     2.4470      0.000770
     2.4475      0.001040
     2.4480      0.001290
     2.4485      0.001210
     2.4490      0.000520
     2.4495      0.000070
     2.4500      0.000280
     2.4505      0.000780
     2.4510      0.001040
     2.4515      0.000980
     2.4520      0.000960
     2.4525      0.001110
     2.4530      0.000900
     2.4535      0.000500
     2.4540      0.000420
     2.4545      0.000640
     2.4550      0.000920
     2.4555      0.001080
     2.4560      0.001080
     2.4565      0.001050
     2.4570      0.001090
     2.4575      0.001040
     2.4580      0.000790
     2.4585      0.000460
     2.4590      0.000300
     2.4595      0.000540
     2.4600      0.000760
     2.4605      0.000640
     2.4610      0.000560
     2.4615      0.000460
     2.4620      0.000290
     2.4625      0.000140
     2.4630      0.000160
     2.4635      0.000190
     2.4640      0.000110
     2.4645      0.000130
     2.4650      0.000310
     2.4655      0.000540
     2.4660      0.000710
     2.4665      0.000820
     2.4670      0.000880
     2.4675      0.000810
     2.4680      0.000770
     2.4685      0.000720
     2.4690      0.000550
     2.4695      0.000280
     2.4700      0.000230
     2.4705      0.000380
     2.4710      0.000290
     2.4715      0.000170
     2.4720      0.000270
     2.4725      0.000560
     2.4730      0.000590
     2.4735      0.000040
     2.4740      0.000000
     2.4745      0.000300
     2.4750      0.000530
     2.4755      0.000630
     2.4760      0.000730
     2.4765      0.000720
     2.4770      0.000450
     2.4775      0.000280
     2.4780      0.000110
     2.4785      0.000000
     2.4790      0.000000
     2.4795      0.000000
     2.4800      0.000000
     2.4805      0.000000
     2.4810      0.000000
     2.4815      0.000000
     2.4820      0.000000
     2.4825      0.000000
     2.4830      0.000000
     2.4835      0.000000
     2.4840      0.000000
     2.4845      0.000000
     2.4850      0.000000
     2.4855      0.000000
     2.4860      0.000000
     2.4865      0.000000
     2.4870      0.000000
     2.4875      0.000000
     2.4880      0.000000
     2.4885      0.000000
     2.4890      0.000000
     2.4895      0.000020
     2.4900      0.000010
     2.4905      0.000000
     2.4910      0.000000
     2.4915      0.000000
     2.4920      0.000000
     2.4925      0.000000
     2.4930      0.000000
     2.4935      0.000050
     2.4940      0.000090
     2.4945      0.000060
     2.4950      0.000000
     2.4955      0.000000
     2.4960      0.000000
     2.4965      0.000000
     2.4970      0.000000
     2.4975      0.000010
     2.4980      0.000040
     2.4985      0.000010
     2.4990      0.000000
     2.4995      0.000000
     2.5000      0.000000
     2.5005      0.000000
     2.5010      0.000010
     2.5015      0.000190
     2.5020      0.000170
     2.5025      0.000090
     2.5030      0.000090
     2.5035      0.000220
     2.5040      0.000340
     2.5045      0.000250
     2.5050      0.000080
     2.5055      0.000000
     2.5060      0.000000
     2.5065      0.000000
     2.5070      0.000010
     2.5075      0.000270
     2.5080      0.000420
     2.5085      0.000450
     2.5090      0.000450
     2.5095      0.000450
     2.5100      0.000480
     2.5105      0.000470
     2.5110      0.000470
     2.5115      0.000520
     2.5120      0.000600
     2.5125      0.000650
     2.5130      0.000680
     2.5135      0.000630
     2.5140      0.000600
     2.5145      0.000690
     2.5150      0.000970
     2.5155      0.001360
     2.5160      0.001340
     2.5165      0.001130
     2.5170      0.001020
     2.5175      0.001100
     2.5180      0.001140
     2.5185      0.001350
     2.5190      0.001550
     2.5195      0.001630
     2.5200      0.001640
     2.5205      0.001740
     2.5210      0.002090
     2.5215      0.002630
     2.5220      0.003000
     2.5225      0.003580
     2.5230      0.004530
     2.5235      0.005520
     2.5240      0.006450
     2.5245      0.007630
     2.5250      0.009690
     2.5255      0.013200
     2.5260      0.018530
     2.5265      0.025780
     2.5270      0.039840
     2.5275      0.064930
     2.5280      0.114370
     2.5285      0.198170
     2.5290      0.308980
     2.5295      0.327370
     2.5300      0.259170
     2.5305      0.162550
     2.5310      0.087570
     2.5315      0.054470
     2.5320      0.038270
     2.5325      0.028590
     2.5330      0.022260
     2.5335      0.017500
     2.5340      0.013860
     2.5345      0.011590
     2.5350      0.009930
     2.5355      0.008960
     2.5360      0.008430
     2.5365      0.007890
     2.5370      0.007610
     2.5375      0.006930
     2.5380      0.006300
     2.5385      0.005820
     2.5390      0.005460
     2.5395      0.005110
     2.5400      0.005020
     2.5405      0.004950
     2.5410      0.004920
     2.5415      0.004940
     2.5420      0.004750
     2.5425      0.004850
     2.5430      0.005140
     2.5435      0.005280
     2.5440      0.005000
     2.5445      0.004590
     2.5450      0.004530
     2.5455      0.004490
     2.5460      0.004390
     2.5465      0.004290
     2.5470      0.004650
     2.5475      0.004820
     2.5480      0.004730
     2.5485      0.004700
     2.5490      0.005000
     2.5495      0.005380
     2.5500      0.005390
     2.5505      0.005580
     2.5510      0.006010
     2.5515      0.006580
     2.5520      0.006820
     2.5525      0.007000
     2.5530      0.007000
     2.5535      0.006920
     2.5540      0.006970
     2.5545      0.007470
     2.5550      0.008000
     2.5555      0.008500
     2.5560      0.008970
     2.5565      0.009460
     2.5570      0.010170
     2.5575      0.010860
     2.5580      0.011560
     2.5585      0.012340
     2.5590      0.013290
     2.5595      0.014360
     2.5600      0.015470
     2.5605      0.016660
     2.5610      0.017890
     2.5615      0.018980
     2.5620      0.020030
     2.5625      0.021500
     2.5630      0.023210
     2.5635      0.025120
     2.5640      0.028070
     2.5645      0.031130
     2.5650      0.033740
     2.5655      0.036540
     2.5660      0.040440
     2.5665      0.045440
     2.5670      0.051420
     2.5675      0.058130
     2.5680      0.065790
     2.5685      0.075040
     2.5690      0.088180
     2.5695      0.103570
     2.5700      0.120220
     2.5705      0.138370
     2.5710      0.162000
     2.5715      0.194970
     2.5720      0.230430
     2.5725      0.273650
     2.5730      0.331980
     2.5735      0.408610
     2.5740      0.479630
     2.5745      0.550640
     2.5750      0.618010
     2.5755      0.666880
     2.5760      0.678020
     2.5765      0.659590
     2.5770      0.619810
     2.5775      0.567550
     2.5780      0.511540
     2.5785      0.452220
     2.5790      0.397640
     2.5795      0.350400
     2.5800      0.310790
     2.5805      0.274560
     2.5810      0.244690
     2.5815      0.220830
     2.5820      0.202210
     2.5825      0.187780
     2.5830      0.176020
     2.5835      0.162520
     2.5840      0.148030
     2.5845      0.136320
     2.5850      0.129610
     2.5855      0.123810
     2.5860      0.119200
     2.5865      0.115740
     2.5870      0.110860
     2.5875      0.105920
     2.5880      0.102050
     2.5885      0.099290
     2.5890      0.096780
     2.5895      0.095260
     2.5900      0.093730
     2.5905      0.092280
     2.5910      0.091140
     2.5915      0.091400
     2.5920      0.091160
     2.5925      0.090840
     2.5930      0.091230
     2.5935      0.094760
     2.5940      0.097290
     2.5945      0.094920
     2.5950      0.090220
     2.5955      0.089000
     2.5960      0.092620
     2.5965      0.095830
     2.5970      0.098460
     2.5975      0.100530
     2.5980      0.102480
     2.5985      0.104960
     2.5990      0.107770
     2.5995      0.110850
     2.6000      0.114350
     2.6005      0.118750
     2.6010      0.123760
     2.6015      0.129030
     2.6020      0.134000
     2.6025      0.138090
     2.6030      0.144990
     2.6035      0.153680
     2.6040      0.162570
     2.6045      0.166000
     2.6050      0.173420
     2.6055      0.185380
     2.6060      0.201410
     2.6065      0.215190
     2.6070      0.230520
     2.6075      0.247270
     2.6080      0.264920
     2.6085      0.281560
     2.6090      0.302000
     2.6095      0.326930
     2.6100      0.355150
     2.6105      0.383460
     2.6110      0.414690
     2.6115      0.447170
     2.6120      0.481070
     2.6125      0.516900
     2.6130      0.560450
     2.6135      0.602970
     2.6140      0.644150
     2.6145      0.683960
     2.6150      0.717190
     2.6155      0.744030
     2.6160      0.767920
     2.6165      0.790950
     2.6170      0.802810
     2.6175      0.804400
     2.6180      0.797040
     2.6185      0.782040
     2.6190      0.765180
     2.6195      0.745560
     2.6200      0.714470
     2.6205      0.670650
     2.6210      0.630610
     2.6215      0.595650
     2.6220      0.562310
     2.6225      0.529700
     2.6230      0.499230
     2.6235      0.470870
     2.6240      0.444690
     2.6245      0.420590
     2.6250      0.398100
     2.6255      0.378820
     2.6260      0.360200
     2.6265      0.341890
     2.6270      0.324980
     2.6275      0.311200
     2.6280      0.298340
     2.6285      0.286440
     2.6290      0.277450
     2.6295      0.268550
     2.6300      0.258520
     2.6305      0.248180
     2.6310      0.241560
     2.6315      0.236190
     2.6320      0.230770
     2.6325      0.225140
     2.6330      0.219840
     2.6335      0.215520
     2.6340      0.212420
     2.6345      0.210420
     2.6350      0.208630
     2.6355      0.206430
     2.6360      0.204620
     2.6365      0.203420
     2.6370      0.202720
     2.6375      0.202360
     2.6380      0.202390
     2.6385      0.202900
     2.6390      0.204190
     2.6395      0.205880
     2.6400      0.207690
     2.6405      0.209560
     2.6410      0.212180
     2.6415      0.215370
     2.6420      0.218990
     2.6425      0.223030
     2.6430      0.227590
     2.6435      0.232770
     2.6440      0.238690
     2.6445      0.245490
     2.6450      0.254230
     2.6455      0.262690
     2.6460      0.270710
     2.6465      0.278070
     2.6470      0.288150
     2.6475      0.299520
     2.6480      0.312110
     2.6485      0.326040
     2.6490      0.341540
     2.6495      0.358150
     2.6500      0.376070
     2.6505      0.396250
     2.6510      0.418490
     2.6515      0.444180
     2.6520      0.473140
     2.6525      0.501840
     2.6530      0.528360
     2.6535      0.555750
     2.6540      0.585450
     2.6545      0.616960
     2.6550      0.649050
     2.6555      0.679600
     2.6560      0.706500
     2.6565      0.725790
     2.6570      0.741120
     2.6575      0.751110
     2.6580      0.752150
     2.6585      0.744200
     2.6590      0.727580
     2.6595      0.702340
     2.6600      0.667670
     2.6605      0.633720
     2.6610      0.595450
     2.6615      0.551070
     2.6620      0.505030
     2.6625      0.460540
     2.6630      0.418360
     2.6635      0.379510
     2.6640      0.353140
     2.6645      0.320300
     2.6650      0.284520
     2.6655      0.255100
     2.6660      0.236740
     2.6665      0.218830
     2.6670      0.199910
     2.6675      0.185330
     2.6680      0.171950
     2.6685      0.160060
     2.6690      0.150050
     2.6695      0.144850
     2.6700      0.136570
     2.6705      0.126190
     2.6710      0.115260
     2.6715      0.107820
     2.6720      0.101330
     2.6725      0.095230
     2.6730      0.088810
     2.6735      0.083430
     2.6740      0.078900
     2.6745      0.075250
     2.6750      0.071630
     2.6755      0.067750
     2.6760      0.063670
     2.6765      0.059590
     2.6770      0.055400
     2.6775      0.051530
     2.6780      0.048200
     2.6785      0.046160
     2.6790      0.043510
     2.6795      0.040530
     2.6800      0.037440
     2.6805      0.034850
     2.6810      0.032450
     2.6815      0.030260
     2.6820      0.028480
     2.6825      0.026560
     2.6830      0.024810
     2.6835      0.023440
     2.6840      0.022090
     2.6845      0.020510
     2.6850      0.018890
     2.6855      0.017700
     2.6860      0.016670
     2.6865      0.015620
     2.6870      0.014490
     2.6875      0.013560
     2.6880      0.012730
     2.6885      0.011950
     2.6890      0.011160
     2.6895      0.010560
     2.6900      0.009940
     2.6905      0.009210
     2.6910      0.008310
     2.6915      0.007720
     2.6920      0.007460
     2.6925      0.007610
     2.6930      0.007540
     2.6935      0.006870
     2.6940      0.005600
     2.6945      0.004910
     2.6950      0.004610
     2.6955      0.004450
     2.6960      0.004180
     2.6965      0.004120
     2.6970      0.004090
     2.6975      0.004070
     2.6980      0.003880
     2.6985      0.003540
     2.6990      0.003120
     2.6995      0.002730
     2.7000      0.002660
     2.7005      0.002620
     2.7010      0.002540
     2.7015      0.002200
     2.7020      0.002120
     2.7025      0.002330
     2.7030      0.002960
     2.7035      0.003400
     2.7040      0.003480
     2.7045      0.003110
     2.7050      0.002290
     2.7055      0.001880
     2.7060      0.001850
     2.7065      0.002250
     2.7070      0.002380
     2.7075      0.002450
     2.7080      0.002560
     2.7085      0.002670
     2.7090      0.002630
     2.7095      0.002440
     2.7100      0.002220
     2.7105      0.001970
     2.7110      0.001810
     2.7115      0.001960
     2.7120      0.002240
     2.7125      0.002460
     2.7130      0.002550
     2.7135      0.002560
     2.7140      0.002740
     2.7145      0.003040
     2.7150      0.003280
     2.7155      0.003110
     2.7160      0.002860
     2.7165      0.002730
     2.7170      0.003390
     2.7175      0.003950
     2.7180      0.004270
     2.7185      0.003900
     2.7190      0.004000
     2.7195      0.004510
     2.7200      0.005540
     2.7205      0.004940
     2.7210      0.003700
     2.7215      0.002170
     2.7220      0.001850
     2.7225      0.002020
     2.7230      0.002570
     2.7235      0.003080
     2.7240      0.003320
     2.7245      0.003400
     2.7250      0.003390
     2.7255      0.003090
     2.7260      0.002690
     2.7265      0.002300
     2.7270      0.002290
     2.7275      0.002240
     2.7280      0.002090
     2.7285      0.001980
     2.7290      0.001920
     2.7295      0.001880
     2.7300      0.001680
     2.7305      0.001560
     2.7310      0.001450
     2.7315      0.001300
     2.7320      0.001300
     2.7325      0.001460
     2.7330      0.001810
     2.7335      0.002230
     2.7340      0.002600
     2.7345      0.002850
     2.7350      0.002370
     2.7355      0.001940
     2.7360      0.001630
     2.7365      0.001760
     2.7370      0.001940
     2.7375      0.002160
     2.7380      0.002370
     2.7385      0.002520
     2.7390      0.002510
     2.7395      0.002300
     2.7400      0.002100
     2.7405      0.002110
     2.7410      0.002330
     2.7415      0.002360
     2.7420      0.002130
     2.7425      0.001780
     2.7430      0.001720
     2.7435      0.001970
     2.7440      0.002340
     2.7445      0.002720
     2.7450      0.003030
     2.7455      0.003170
     2.7460      0.003000
     2.7465      0.002430
     2.7470      0.002060
     2.7475      0.001980
     2.7480      0.002490
     2.7485      0.002960
     2.7490      0.003360
     2.7495      0.003400
     2.7500      0.003210
     2.7505      0.002920
     2.7510      0.002880
     2.7515      0.003030
     2.7520      0.003220
     2.7525      0.003240
     2.7530      0.003480
     2.7535      0.003850
     2.7540      0.004370
     2.7545      0.004700
     2.7550      0.004980
     2.7555      0.005210
     2.7560      0.004830
     2.7565      0.004250
     2.7570      0.003480
     2.7575      0.003430
     2.7580      0.003750
     2.7585      0.004430
     2.7590      0.005410
     2.7595      0.006250
     2.7600      0.006890
     2.7605      0.006720
     2.7610      0.006490
     2.7615      0.006360
     2.7620      0.006770
     2.7625      0.007140
     2.7630      0.007410
     2.7635      0.007450
     2.7640      0.007740
     2.7645      0.008120
     2.7650      0.008540
     2.7655      0.008600
     2.7660      0.008660
     2.7665      0.008900
     2.7670      0.009440
     2.7675      0.009670
     2.7680      0.009340
     2.7685      0.009100
     2.7690      0.009270
     2.7695      0.009970
     2.7700      0.010190
     2.7705      0.009990
     2.7710      0.009330
     2.7715      0.008710
     2.7720      0.008300
     2.7725      0.008110
     2.7730      0.008440
     2.7735      0.008610
     2.7740      0.008630
     2.7745      0.008450
     2.7750      0.008330
     2.7755      0.008260
     2.7760      0.008080
     2.7765      0.008080
     2.7770      0.008210
     2.7775      0.008400
     2.7780      0.008420
     2.7785      0.008370
     2.7790      0.008420
     2.7795      0.008280
     2.7800      0.008020
     2.7805      0.007700
     2.7810      0.007740
     2.7815      0.007890
     2.7820      0.007820
     2.7825      0.007600
     2.7830      0.007390
     2.7835      0.007540
     2.7840      0.007730
     2.7845      0.007930
     2.7850      0.008120
     2.7855      0.008380
     2.7860      0.008600
     2.7865      0.008600
     2.7870      0.008590
     2.7875      0.008580
     2.7880      0.008560
     2.7885      0.008500
     2.7890      0.008440
     2.7895      0.008460
     2.7900      0.008340
     2.7905      0.008230
     2.7910      0.008260
     2.7915      0.008430
     2.7920      0.008560
     2.7925      0.008400
     2.7930      0.008360
     2.7935      0.008440
     2.7940      0.008800
     2.7945      0.009000
     2.7950      0.009050
     2.7955      0.008800
     2.7960      0.008560
     2.7965      0.008370
     2.7970      0.008410
     2.7975      0.008610
     2.7980      0.008930
     2.7985      0.009420
     2.7990      0.009790
     2.7995      0.010070
     2.8000      0.010230
     2.8005      0.010480
     2.8010      0.010770
     2.8015      0.011050
     2.8020      0.011240
     2.8025      0.011370
     2.8030      0.011560
     2.8035      0.011920
     2.8040      0.012390
     2.8045      0.012550
     2.8050      0.012520
     2.8055      0.012330
     2.8060      0.012480
     2.8065      0.012870
     2.8070      0.013490
     2.8075      0.014270
     2.8080      0.014820
     2.8085      0.015100
     2.8090      0.014970
     2.8095      0.015010
     2.8100      0.015320
     2.8105      0.015740
     2.8110      0.015980
     2.8115      0.015890
     2.8120      0.015920
     2.8125      0.016080
     2.8130      0.016470
     2.8135      0.016810
     2.8140      0.017200
     2.8145      0.017790
     2.8150      0.018440
     2.8155      0.019010
     2.8160      0.019230
     2.8165      0.019470
     2.8170      0.019810
     2.8175      0.020680
     2.8180      0.021630
     2.8185      0.022570
     2.8190      0.022810
     2.8195      0.022990
     2.8200      0.023160
     2.8205      0.024000
     2.8210      0.025030
     2.8215      0.026220
     2.8220      0.027480
     2.8225      0.028520
     2.8230      0.029270
     2.8235      0.029600
     2.8240      0.030020
     2.8245      0.030690
     2.8250      0.031590
     2.8255      0.032550
     2.8260      0.033510
     2.8265      0.034590
     2.8270      0.035700
     2.8275      0.036740
     2.8280      0.037780
     2.8285      0.038880
     2.8290      0.040320
     2.8295      0.041620
     2.8300      0.042810
     2.8305      0.043690
     2.8310      0.044940
     2.8315      0.046590
     2.8320      0.048730
     2.8325      0.050740
     2.8330      0.052450
     2.8335      0.054150
     2.8340      0.055910
     2.8345      0.057820
     2.8350      0.059470
     2.8355      0.061130
     2.8360      0.063190
     2.8365      0.065700
     2.8370      0.068430
     2.8375      0.070810
     2.8380      0.073060
     2.8385      0.075170
     2.8390      0.077420
     2.8395      0.079730
     2.8400      0.082150
     2.8405      0.084820
     2.8410      0.087620
     2.8415      0.090600
     2.8420      0.093760
     2.8425      0.097000
     2.8430      0.100390
     2.8435      0.103940
     2.8440      0.107580
     2.8445      0.111250
     2.8450      0.114950
     2.8455      0.118660
     2.8460      0.122920
     2.8465      0.127250
     2.8470      0.131630
     2.8475      0.136200
     2.8480      0.141040
     2.8485      0.146540
     2.8490      0.151800
     2.8495      0.156890
     2.8500      0.161420
     2.8505      0.166230
     2.8510      0.171230
     2.8515      0.176980
     2.8520      0.182920
     2.8525      0.189110
     2.8530      0.195180
     2.8535      0.201250
     2.8540      0.207370
     2.8545      0.213670
     2.8550      0.220030
     2.8555      0.226430
     2.8560      0.233090
     2.8565      0.239950
     2.8570      0.246810
     2.8575      0.253770
     2.8580      0.260850
     2.8585      0.268450
     2.8590      0.275990
     2.8595      0.283190
     2.8600      0.290200
     2.8605      0.297190
     2.8610      0.304600
     2.8615      0.312140
     2.8620      0.319780
     2.8625      0.327470
     2.8630      0.335160
     2.8635      0.342880
     2.8640      0.350200
     2.8645      0.357230
     2.8650      0.363570
     2.8655      0.369950
     2.8660      0.376380
     2.8665      0.383250
     2.8670      0.390130
     2.8675      0.397010
     2.8680      0.403730
     2.8685      0.410200
     2.8690      0.416150
     2.8695      0.421610
     2.8700      0.426840
     2.8705      0.431820
     2.8710      0.436680
     2.8715      0.441430
     2.8720      0.445870
     2.8725      0.450180
     2.8730      0.454270
     2.8735      0.458360
     2.8740      0.462380
     2.8745      0.466020
     2.8750      0.469240
     2.8755      0.472150
     2.8760      0.474600
     2.8765      0.476900
     2.8770      0.478960
     2.8775      0.481070
     2.8780      0.483180
     2.8785      0.485270
     2.8790      0.487010
     2.8795      0.488530
     2.8800      0.489570
     2.8805      0.490620
     2.8810      0.491680
     2.8815      0.492920
     2.8820      0.494110
     2.8825      0.494930
     2.8830      0.495320
     2.8835      0.495430
     2.8840      0.495700
     2.8845      0.496060
     2.8850      0.496570
     2.8855      0.496850
     2.8860      0.497030
     2.8865      0.497010
     2.8870      0.496980
     2.8875      0.496950
     2.8880      0.496970
     2.8885      0.496890
     2.8890      0.496650
     2.8895      0.496220
     2.8900      0.495810
     2.8905      0.495890
     2.8910      0.496020
     2.8915      0.496200
     2.8920      0.495650
     2.8925      0.495170
     2.8930      0.494980
     2.8935      0.495500
     2.8940      0.496300
     2.8945      0.496510
     2.8950      0.496300
     2.8955      0.495600
     2.8960      0.495450
     2.8965      0.495570
     2.8970      0.496300
     2.8975      0.496860
     2.8980      0.497320
     2.8985      0.497380
     2.8990      0.497460
     2.8995      0.497590
     2.9000      0.497840
     2.9005      0.498120
     2.9010      0.498330
     2.9015      0.498400
     2.9020      0.498320
     2.9025      0.498380
     2.9030      0.498560
     2.9035      0.499070
     2.9040      0.499510
     2.9045      0.499890
     2.9050      0.500120
     2.9055      0.500390
     2.9060      0.500730
     2.9065      0.501230
     2.9070      0.501820
     2.9075      0.502730
     2.9080      0.503500
     2.9085      0.504130
     2.9090      0.504370
     2.9095      0.504600
     2.9100      0.505040
     2.9105      0.505730
     2.9110      0.506610
     2.9115      0.507340
     2.9120      0.507840
     2.9125      0.507870
     2.9130      0.507840
     2.9135      0.507800
     2.9140      0.508280
     2.9145      0.508830
     2.9150      0.509520
     2.9155      0.509940
     2.9160      0.510190
     2.9165      0.509840
     2.9170      0.509510
     2.9175      0.509190
     2.9180      0.509150
     2.9185      0.509160
     2.9190      0.509160
     2.9195      0.509320
     2.9200      0.509590
     2.9205      0.509530
     2.9210      0.509300
     2.9215      0.508680
     2.9220      0.508220
     2.9225      0.507850
     2.9230      0.507520
     2.9235      0.507120
     2.9240      0.506590
     2.9245      0.506060
     2.9250      0.505540
     2.9255      0.504980
     2.9260      0.504300
     2.9265      0.503450
     2.9270      0.502520
     2.9275      0.501580
     2.9280      0.500690
     2.9285      0.499670
     2.9290      0.498460
     2.9295      0.497150
     2.9300      0.495830
     2.9305      0.494690
     2.9310      0.493540
     2.9315      0.492360
     2.9320      0.491080
     2.9325      0.489770
     2.9330      0.488460
     2.9335      0.486980
     2.9340      0.485320
     2.9345      0.483240
     2.9350      0.481140
     2.9355      0.479340
     2.9360      0.477700
     2.9365      0.476230
     2.9370      0.474500
     2.9375      0.472760
     2.9380      0.471160
     2.9385      0.469640
     2.9390      0.468190
     2.9395      0.466540
     2.9400      0.464810
     2.9405      0.462980
     2.9410      0.461030
     2.9415      0.458960
     2.9420      0.456760
     2.9425      0.454620
     2.9430      0.452900
     2.9435      0.451290
     2.9440      0.449790
     2.9445      0.447790
     2.9450      0.445680
     2.9455      0.443520
     2.9460      0.441410
     2.9465      0.439380
     2.9470      0.437240
     2.9475      0.435130
     2.9480      0.433320
     2.9485      0.431650
     2.9490      0.430140
     2.9495      0.428610
     2.9500      0.427040
     2.9505      0.425190
     2.9510      0.423320
     2.9515      0.421440
     2.9520      0.420180
     2.9525      0.419150
     2.9530      0.418210
     2.9535      0.416950
     2.9540      0.415150
     2.9545      0.413320
     2.9550      0.411480
     2.9555      0.410160
     2.9560      0.408840
     2.9565      0.407520
     2.9570      0.406120
     2.9575      0.404670
     2.9580      0.403510
     2.9585      0.402420
     2.9590      0.401500
     2.9595      0.400460
     2.9600      0.399330
     2.9605      0.398150
     2.9610      0.396970
     2.9615      0.395890
     2.9620      0.394830
     2.9625      0.393790
     2.9630      0.393120
     2.9635      0.392560
     2.9640      0.392180
     2.9645      0.391560
     2.9650      0.390620
     2.9655      0.389690
     2.9660      0.388760
     2.9665      0.388050
     2.9670      0.387330
     2.9675      0.386580
     2.9680      0.386030
     2.9685      0.385580
     2.9690      0.385110
     2.9695      0.384620
     2.9700      0.384060
     2.9705      0.383770
     2.9710      0.383730
     2.9715      0.383880
     2.9720      0.384020
     2.9725      0.383820
     2.9730      0.383580
     2.9735      0.383310
     2.9740      0.383270
     2.9745      0.383320
     2.9750      0.383500
     2.9755      0.383710
     2.9760      0.384000
     2.9765      0.384240
     2.9770      0.384450
     2.9775      0.384490
     2.9780      0.384560
     2.9785      0.384890
     2.9790      0.385390
     2.9795      0.386090
     2.9800      0.386580
     2.9805      0.387010
     2.9810      0.387290
     2.9815      0.387710
     2.9820      0.388400
     2.9825      0.389060
     2.9830      0.389710
     2.9835      0.390120
     2.9840      0.390520
     2.9845      0.391000
     2.9850      0.391620
     2.9855      0.392400
     2.9860      0.393390
     2.9865      0.394450
     2.9870      0.395400
     2.9875      0.396350
     2.9880      0.397260
     2.9885      0.398180
     2.9890      0.399090
     2.9895      0.399800
     2.9900      0.400510
     2.9905      0.401360
     2.9910      0.402320
     2.9915      0.403460
     2.9920      0.404740
     2.9925      0.406080
     2.9930      0.407300
     2.9935      0.408400
     2.9940      0.409080
     2.9945      0.409840
     2.9950      0.410670
     2.9955      0.411940
     2.9960      0.413330
     2.9965      0.414680
     2.9970      0.415980
     2.9975      0.417170
     2.9980      0.418350
     2.9985      0.419530
     2.9990      0.420800
     2.9995      0.422160
     3.0000      0.424050
     3.0005      0.425990
     3.0010      0.428010
     3.0015      0.429570
     3.0020      0.430860
     3.0025      0.432000
     3.0030      0.433170
     3.0035      0.434580
     3.0040      0.435920
     3.0045      0.437180
     3.0050      0.438360
     3.0055      0.439510
     3.0060      0.441070
     3.0065      0.442750
     3.0070      0.444830
     3.0075      0.446720
     3.0080      0.448410
     3.0085      0.449580
     3.0090      0.450530
     3.0095      0.451560
     3.0100      0.452670
     3.0105      0.454050
     3.0110      0.455570
     3.0115      0.457250
     3.0120      0.459160
     3.0125      0.461170
     3.0130      0.462650
     3.0135      0.464000
     3.0140      0.464920
     3.0145      0.466120
     3.0150      0.467640
     3.0155      0.469440
     3.0160      0.471350
     3.0165      0.472980
     3.0170      0.474550
     3.0175      0.475940
     3.0180      0.477310
     3.0185      0.478660
     3.0190      0.480100
     3.0195      0.481590
     3.0200      0.483160
     3.0205      0.484700
     3.0210      0.486100
     3.0215      0.487430
     3.0220      0.488680
     3.0225      0.489900
     3.0230      0.491130
     3.0235      0.492580
     3.0240      0.494090
     3.0245      0.495720
     3.0250      0.497280
     3.0255      0.498700
     3.0260      0.500160
     3.0265      0.501630
     3.0270      0.503160
     3.0275      0.504680
     3.0280      0.505820
     3.0285      0.506920
     3.0290      0.507900
     3.0295      0.509070
     3.0300      0.510410
     3.0305      0.511800
     3.0310      0.513210
     3.0315      0.514650
     3.0320      0.516180
     3.0325      0.518020
     3.0330      0.519760
     3.0335      0.521370
     3.0340      0.522650
     3.0345      0.523780
     3.0350      0.525250
     3.0355      0.526740
     3.0360      0.528000
     3.0365      0.529060
     3.0370      0.529730
     3.0375      0.530950
     3.0380      0.532620
     3.0385      0.534730
     3.0390      0.536970
     3.0395      0.538090
     3.0400      0.539060
     3.0405      0.539520
     3.0410      0.540180
     3.0415      0.541120
     3.0420      0.542350
     3.0425      0.543750
     3.0430      0.544980
     3.0435      0.546170
     3.0440      0.547240
     3.0445      0.548390
     3.0450      0.549770
     3.0455      0.551170
     3.0460      0.552590
     3.0465      0.553800
     3.0470      0.554920
     3.0475      0.556020
     3.0480      0.557150
     3.0485      0.558430
     3.0490      0.559770
     3.0495      0.561230
     3.0500      0.562750
     3.0505      0.564320
     3.0510      0.565600
     3.0515      0.566780
     3.0520      0.567770
     3.0525      0.568810
     3.0530      0.570160
     3.0535      0.571470
     3.0540      0.572730
     3.0545      0.573950
     3.0550      0.575160
     3.0555      0.576470
     3.0560      0.577810
     3.0565      0.579170
     3.0570      0.580560
     3.0575      0.582060
     3.0580      0.583300
     3.0585      0.584050
     3.0590      0.584590
     3.0595      0.584940
     3.0600      0.585950
     3.0605      0.587190
     3.0610      0.588810
     3.0615      0.590430
     3.0620      0.591840
     3.0625      0.593200
     3.0630      0.594460
     3.0635      0.595600
     3.0640      0.596620
     3.0645      0.597400
     3.0650      0.598080
     3.0655      0.598840
     3.0660      0.599660
     3.0665      0.600890
     3.0670      0.602150
     3.0675      0.603470
     3.0680      0.604780
     3.0685      0.606080
     3.0690      0.607230
     3.0695      0.608300
     3.0700      0.608930
     3.0705      0.609460
     3.0710      0.610010
     3.0715      0.610650
     3.0720      0.611720
     3.0725      0.612760
     3.0730      0.613750
     3.0735      0.614580
     3.0740      0.615260
     3.0745      0.616230
     3.0750      0.617310
     3.0755      0.618440
     3.0760      0.619540
     3.0765      0.620280
     3.0770      0.621010
     3.0775      0.621700
     3.0780      0.622320
     3.0785      0.622860
     3.0790      0.623420
     3.0795      0.624000
     3.0800      0.624460
     3.0805      0.624890
     3.0810      0.625190
     3.0815      0.625510
     3.0820      0.626230
     3.0825      0.626880
     3.0830      0.627330
     3.0835      0.627650
     3.0840      0.627800
     3.0845      0.628040
     3.0850      0.628350
     3.0855      0.628650
     3.0860      0.628940
     3.0865      0.629590
     3.0870      0.630270
     3.0875      0.630830
     3.0880      0.631240
     3.0885      0.631170
     3.0890      0.631050
     3.0895      0.630870
     3.0900      0.630650
     3.0905      0.630390
     3.0910      0.630400
     3.0915      0.630510
     3.0920      0.630720
     3.0925      0.630910
     3.0930      0.630280
     3.0935      0.629700
     3.0940      0.629310
     3.0945      0.629350
     3.0950      0.630170
     3.0955      0.630750
     3.0960      0.631080
     3.0965      0.630570
     3.0970      0.629610
     3.0975      0.628900
     3.0980      0.628250
     3.0985      0.628250
     3.0990      0.628240
     3.0995      0.627920
     3.1000      0.627540
     3.1005      0.626990
     3.1010      0.626560
     3.1015      0.626310
     3.1020      0.626060
     3.1025      0.625820
     3.1030      0.625340
     3.1035      0.624730
     3.1040      0.624100
     3.1045      0.623470
     3.1050      0.622980
     3.1055      0.622460
     3.1060      0.621770
     3.1065      0.621120
     3.1070      0.620620
     3.1075      0.620150
     3.1080      0.619730
     3.1085      0.619040
     3.1090      0.618110
     3.1095      0.617140
     3.1100      0.616160
     3.1105      0.615310
     3.1110      0.614510
     3.1115      0.613920
     3.1120      0.613340
     3.1125      0.612770
     3.1130      0.612150
     3.1135      0.611340
     3.1140      0.610630
     3.1145      0.610110
     3.1150      0.609630
     3.1155      0.609210
     3.1160      0.608660
     3.1165      0.608030
     3.1170      0.607360
     3.1175      0.606670
     3.1180      0.606100
     3.1185      0.605550
     3.1190      0.605310
     3.1195      0.605050
     3.1200      0.604430
     3.1205      0.603750
     3.1210      0.602850
     3.1215      0.602030
     3.1220      0.601390
     3.1225      0.600780
     3.1230      0.600200
     3.1235      0.599790
     3.1240      0.599510
     3.1245      0.599110
     3.1250      0.598660
     3.1255      0.598040
     3.1260      0.597380
     3.1265      0.597300
     3.1270      0.597280
     3.1275      0.597500
     3.1280      0.597670
     3.1285      0.597480
     3.1290      0.597160
     3.1295      0.596470
     3.1300      0.595820
     3.1305      0.595230
     3.1310      0.594890
     3.1315      0.594850
     3.1320      0.594750
     3.1325      0.594630
     3.1330      0.594290
     3.1335      0.593850
     3.1340      0.593420
     3.1345      0.592980
     3.1350      0.592590
     3.1355      0.592200
     3.1360      0.591880
     3.1365      0.591590
     3.1370      0.591600
     3.1375      0.591640
     3.1380      0.591830
     3.1385      0.592040
     3.1390      0.592270
     3.1395      0.592540
     3.1400      0.592850
     3.1405      0.592870
     3.1410      0.592620
     3.1415      0.592320
     3.1420      0.591980
     3.1425      0.592330
     3.1430      0.592960
     3.1435      0.593610
     3.1440      0.594260
     3.1445      0.594150
     3.1450      0.593960
     3.1455      0.593910
     3.1460      0.593920
     3.1465      0.594630
     3.1470      0.595270
     3.1475      0.595600
     3.1480      0.595790
     3.1485      0.595570
     3.1490      0.595520
     3.1495      0.595800
     3.1500      0.596180
     3.1505      0.596670
     3.1510      0.597050
     3.1515      0.597320
     3.1520      0.597670
     3.1525      0.598060
     3.1530      0.598620
     3.1535      0.599270
     3.1540      0.600100
     3.1545      0.600980
     3.1550      0.601710
     3.1555      0.602420
     3.1560      0.602980
     3.1565      0.603530
     3.1570      0.604470
     3.1575      0.605420
     3.1580      0.606300
     3.1585      0.607070
     3.1590      0.607220
     3.1595      0.607430
     3.1600      0.607810
     3.1605      0.608490
     3.1610      0.609830
     3.1615      0.611000
     3.1620      0.611900
     3.1625      0.612360
     3.1630      0.612320
     3.1635      0.612550
     3.1640      0.613010
     3.1645      0.613780
     3.1650      0.614750
     3.1655      0.615470
     3.1660      0.616080
     3.1665      0.616660
     3.1670      0.617230
     3.1675      0.617790
     3.1680      0.618340
     3.1685      0.618770
     3.1690      0.619170
     3.1695      0.619760
     3.1700      0.620370
     3.1705      0.620880
     3.1710      0.621390
     3.1715      0.621850
     3.1720      0.622350
     3.1725      0.623060
     3.1730      0.623720
     3.1735      0.624150
     3.1740      0.624540
     3.1745      0.624840
     3.1750      0.625210
     3.1755      0.625760
     3.1760      0.626310
     3.1765      0.626860
     3.1770      0.627380
     3.1775      0.627860
     3.1780      0.628190
     3.1785      0.628350
     3.1790      0.628510
     3.1795      0.628660
     3.1800      0.629030
     3.1805      0.629600
     3.1810      0.629940
     3.1815      0.630150
     3.1820      0.630010
     3.1825      0.629690
     3.1830      0.629420
     3.1835      0.629170
     3.1840      0.628910
     3.1845      0.628640
     3.1850      0.628460
     3.1855      0.628300
     3.1860      0.628140
     3.1865      0.627990
     3.1870      0.627330
     3.1875      0.626590
     3.1880      0.625800
     3.1885      0.625010
     3.1890      0.624610
     3.1895      0.624240
     3.1900      0.623590
     3.1905      0.622940
     3.1910      0.622080
     3.1915      0.621230
     3.1920      0.620630
     3.1925      0.620000
     3.1930      0.618940
     3.1935      0.617810
     3.1940      0.616190
     3.1945      0.614660
     3.1950      0.613620
     3.1955      0.612680
     3.1960      0.612160
     3.1965      0.611550
     3.1970      0.610650
     3.1975      0.609620
     3.1980      0.608220
     3.1985      0.606680
     3.1990      0.604810
     3.1995      0.602830
     3.2000      0.600590
     3.2005      0.598440
     3.2010      0.596470
     3.2015      0.594660
     3.2020      0.593140
     3.2025      0.591530
     3.2030      0.589780
     3.2035      0.587970
     3.2040      0.586060
     3.2045      0.584200
     3.2050      0.582430
     3.2055      0.580690
     3.2060      0.578990
     3.2065      0.577380
     3.2070      0.575880
     3.2075      0.574180
     3.2080      0.572250
     3.2085      0.570110
     3.2090      0.567760
     3.2095      0.565540
     3.2100      0.563450
     3.2105      0.561340
     3.2110      0.559210
     3.2115      0.556990
     3.2120      0.554700
     3.2125      0.552370
     3.2130      0.550030
     3.2135      0.547600
     3.2140      0.545100
     3.2145      0.542600
     3.2150      0.540100
     3.2155      0.537680
     3.2160      0.535330
     3.2165      0.533070
     3.2170      0.530870
     3.2175      0.528550
     3.2180      0.526130
     3.2185      0.523500
     3.2190      0.520710
     3.2195      0.518070
     3.2200      0.515530
     3.2205      0.513260
     3.2210      0.511170
     3.2215      0.508920
     3.2220      0.506560
     3.2225      0.504120
     3.2230      0.501630
     3.2235      0.499330
     3.2240      0.497180
     3.2245      0.494990
     3.2250      0.492770
     3.2255      0.490460
     3.2260      0.488090
     3.2265      0.485610
     3.2270      0.483030
     3.2275      0.480480
     3.2280      0.477960
     3.2285      0.475690
     3.2290      0.473650
     3.2295      0.471480
     3.2300      0.469190
     3.2305      0.466770
     3.2310      0.464230
     3.2315      0.461880
     3.2320      0.459730
     3.2325      0.457650
     3.2330      0.455650
     3.2335      0.453650
     3.2340      0.451620
     3.2345      0.449600
     3.2350      0.447590
     3.2355      0.445600
     3.2360      0.443650
     3.2365      0.441660
     3.2370      0.439630
     3.2375      0.437590
     3.2380      0.435530
     3.2385      0.433610
     3.2390      0.431940
     3.2395      0.430300
     3.2400      0.428740
     3.2405      0.427140
     3.2410      0.425490
     3.2415      0.423800
     3.2420      0.422030
     3.2425      0.420240
     3.2430      0.418400
     3.2435      0.416700
     3.2440      0.415450
     3.2445      0.414250
     3.2450      0.413190
     3.2455      0.412010
     3.2460      0.410300
     3.2465      0.408610
     3.2470      0.407010
     3.2475      0.405450
     3.2480      0.404260
     3.2485      0.403060
     3.2490      0.401660
     3.2495      0.400260
     3.2500      0.398780
     3.2505      0.397310
     3.2510      0.396170
     3.2515      0.395020
     3.2520      0.394020
     3.2525      0.393020
     3.2530      0.391980
     3.2535      0.390940
     3.2540      0.390140
     3.2545      0.389370
     3.2550      0.388610
     3.2555      0.387850
     3.2560      0.386840
     3.2565      0.385770
     3.2570      0.384790
     3.2575      0.383830
     3.2580      0.383020
     3.2585      0.382260
     3.2590      0.381650
     3.2595      0.381110
     3.2600      0.380610
     3.2605      0.380150
     3.2610      0.379560
     3.2615      0.378890
     3.2620      0.378320
     3.2625      0.377860
     3.2630      0.377400
     3.2635      0.376940
     3.2640      0.376410
     3.2645      0.375750
     3.2650      0.375190
     3.2655      0.374810
     3.2660      0.374510
     3.2665      0.374410
     3.2670      0.374320
     3.2675      0.374270
     3.2680      0.374160
     3.2685      0.373760
     3.2690      0.373350
     3.2695      0.372930
     3.2700      0.372530
     3.2705      0.372760
     3.2710      0.372990
     3.2715      0.373280
     3.2720      0.373580
     3.2725      0.373470
     3.2730      0.373330
     3.2735      0.373170
     3.2740      0.373020
     3.2745      0.373200
     3.2750      0.373460
     3.2755      0.373830
     3.2760      0.374220
     3.2765      0.374670
     3.2770      0.375130
     3.2775      0.375840
     3.2780      0.376730
     3.2785      0.377460
     3.2790      0.378040
     3.2795      0.378400
     3.2800      0.378480
     3.2805      0.378670
     3.2810      0.379070
     3.2815      0.379570
     3.2820      0.380340
     3.2825      0.381120
     3.2830      0.381930
     3.2835      0.382760
     3.2840      0.383680
     3.2845      0.384620
     3.2850      0.385900
     3.2855      0.387190
     3.2860      0.388240
     3.2865      0.389280
     3.2870      0.389740
     3.2875      0.390120
     3.2880      0.390820
     3.2885      0.391590
     3.2890      0.392910
     3.2895      0.394440
     3.2900      0.395780
     3.2905      0.397020
     3.2910      0.398030
     3.2915      0.398840
     3.2920      0.399910
     3.2925      0.401290
     3.2930      0.402840
     3.2935      0.404700
     3.2940      0.406460
     3.2945      0.408010
     3.2950      0.409500
     3.2955      0.410770
     3.2960      0.412040
     3.2965      0.413440
     3.2970      0.414840
     3.2975      0.416590
     3.2980      0.418350
     3.2985      0.420340
     3.2990      0.422350
     3.2995      0.424620
     3.3000      0.426950
     3.3005      0.429190
     3.3010      0.431390
     3.3015      0.433240
     3.3020      0.434840
     3.3025      0.436540
     3.3030      0.438360
     3.3035      0.440310
     3.3040      0.442450
     3.3045      0.444540
     3.3050      0.446510
     3.3055      0.448510
     3.3060      0.450570
     3.3065      0.452650
     3.3070      0.454910
     3.3075      0.457170
     3.3080      0.459610
     3.3085      0.462050
     3.3090      0.464440
     3.3095      0.466810
     3.3100      0.469260
     3.3105      0.471730
     3.3110      0.474430
     3.3115      0.477270
     3.3120      0.480080
     3.3125      0.482850
     3.3130      0.485560
     3.3135      0.488180
     3.3140      0.490790
     3.3145      0.493370
     3.3150      0.496030
     3.3155      0.499120
     3.3160      0.502220
     3.3165      0.505810
     3.3170      0.509410
     3.3175      0.512510
     3.3180      0.515570
     3.3185      0.518350
     3.3190      0.521060
     3.3195      0.523780
     3.3200      0.526500
     3.3205      0.529230
     3.3210      0.531960
     3.3215      0.534820
     3.3220      0.537870
     3.3225      0.540960
     3.3230      0.544130
     3.3235      0.547280
     3.3240      0.550300
     3.3245      0.553320
     3.3250      0.556200
     3.3255      0.559070
     3.3260      0.561900
     3.3265      0.564720
     3.3270      0.567700
     3.3275      0.570720
     3.3280      0.573800
     3.3285      0.576930
     3.3290      0.579940
     3.3295      0.582840
     3.3300      0.585660
     3.3305      0.588350
     3.3310      0.590970
     3.3315      0.593350
     3.3320      0.595720
     3.3325      0.597860
     3.3330      0.600000
     3.3335      0.602620
     3.3340      0.605280
     3.3345      0.608130
     3.3350      0.611040
     3.3355      0.613610
     3.3360      0.615990
     3.3365      0.618260
     3.3370      0.620420
     3.3375      0.622660
     3.3380      0.625060
     3.3385      0.627480
     3.3390      0.630000
     3.3395      0.632500
     3.3400      0.634500
     3.3405      0.636490
     3.3410      0.638060
     3.3415      0.639570
     3.3420      0.641120
     3.3425      0.642690
     3.3430      0.644260
     3.3435      0.645830
     3.3440      0.647420
     3.3445      0.649030
     3.3450      0.650560
     3.3455      0.651900
     3.3460      0.653180
     3.3465      0.654020
     3.3470      0.654870
     3.3475      0.655540
     3.3480      0.656200
     3.3485      0.656830
     3.3490      0.657460
     3.3495      0.658170
     3.3500      0.658940
     3.3505      0.659670
     3.3510      0.660350
     3.3515      0.660930
     3.3520      0.661260
     3.3525      0.661550
     3.3530      0.661530
     3.3535      0.661510
     3.3540      0.661320
     3.3545      0.661130
     3.3550      0.661010
     3.3555      0.660910
     3.3560      0.660630
     3.3565      0.660240
     3.3570      0.659690
     3.3575      0.658930
     3.3580      0.658190
     3.3585      0.657490
     3.3590      0.656800
     3.3595      0.656130
     3.3600      0.655450
     3.3605      0.654790
     3.3610      0.654120
     3.3615      0.653330
     3.3620      0.652500
     3.3625      0.651360
     3.3630      0.649990
     3.3635      0.648560
     3.3640      0.647010
     3.3645      0.645460
     3.3650      0.643950
     3.3655      0.642440
     3.3660      0.640780
     3.3665      0.639120
     3.3670      0.637590
     3.3675      0.636080
     3.3680      0.634670
     3.3685      0.633300
     3.3690      0.631850
     3.3695      0.630300
     3.3700      0.628710
     3.3705      0.627010
     3.3710      0.625290
     3.3715      0.623440
     3.3720      0.621590
     3.3725      0.619900
     3.3730      0.618240
     3.3735      0.616680
     3.3740      0.615180
     3.3745      0.613490
     3.3750      0.611590
     3.3755      0.609700
     3.3760      0.607860
     3.3765      0.606050
     3.3770      0.604520
     3.3775      0.602990
     3.3780      0.601240
     3.3785      0.599460
     3.3790      0.597820
     3.3795      0.596220
     3.3800      0.594770
     3.3805      0.593440
     3.3810      0.591970
     3.3815      0.590150
     3.3820      0.588310
     3.3825      0.586250
     3.3830      0.584200
     3.3835      0.582550
     3.3840      0.580960
     3.3845      0.579820
     3.3850      0.578900
     3.3855      0.578000
     3.3860      0.577120
     3.3865      0.576060
     3.3870      0.574480
     3.3875      0.572890
     3.3880      0.571300
     3.3885      0.569700
     3.3890      0.568590
     3.3895      0.567580
     3.3900      0.566610
     3.3905      0.565660
     3.3910      0.564610
     3.3915      0.563390
     3.3920      0.562210
     3.3925      0.561260
     3.3930      0.560310
     3.3935      0.559800
     3.3940      0.559300
     3.3945      0.558510
     3.3950      0.557610
     3.3955      0.556610
     3.3960      0.555510
     3.3965      0.554600
     3.3970      0.554130
     3.3975      0.553690
     3.3980      0.553480
     3.3985      0.553260
     3.3990      0.552910
     3.3995      0.552530
     3.4000      0.552120
     3.4005      0.551680
     3.4010      0.551270
     3.4015      0.550920
     3.4020      0.550560
     3.4025      0.550170
     3.4030      0.549780
     3.4035      0.549410
     3.4040      0.549030
     3.4045      0.548780
     3.4050      0.548580
     3.4055      0.548400
     3.4060      0.548250
     3.4065      0.548180
     3.4070      0.548430
     3.4075      0.548670
     3.4080      0.549230
     3.4085      0.549810
     3.4090      0.550350
     3.4095      0.550890
     3.4100      0.551580
     3.4105      0.552430
     3.4110      0.553290
     3.4115      0.554180
     3.4120      0.555070
     3.4125      0.555720
     3.4130      0.556360
     3.4135      0.557220
     3.4140      0.558150
     3.4145      0.559200
     3.4150      0.560390
     3.4155      0.561540
     3.4160      0.562580
     3.4165      0.563620
     3.4170      0.564460
     3.4175      0.565300
     3.4180      0.566110
     3.4185      0.566920
     3.4190      0.567850
     3.4195      0.568900
     3.4200      0.570040
     3.4205      0.571450
     3.4210      0.572860
     3.4215      0.574590
     3.4220      0.576320
     3.4225      0.578170
     3.4230      0.580070
     3.4235      0.581930
     3.4240      0.583750
     3.4245      0.585540
     3.4250      0.587220
     3.4255      0.588890
     3.4260      0.590480
     3.4265      0.592070
     3.4270      0.594020
     3.4275      0.596140
     3.4280      0.598580
     3.4285      0.601480
     3.4290      0.604330
     3.4295      0.606910
     3.4300      0.609490
     3.4305      0.611680
     3.4310      0.613820
     3.4315      0.616070
     3.4320      0.618400
     3.4325      0.620740
     3.4330      0.623080
     3.4335      0.625430
     3.4340      0.627900
     3.4345      0.630380
     3.4350      0.633060
     3.4355      0.635790
     3.4360      0.638400
     3.4365      0.640910
     3.4370      0.643370
     3.4375      0.645670
     3.4380      0.647970
     3.4385      0.650400
     3.4390      0.652830
     3.4395      0.655280
     3.4400      0.657750
     3.4405      0.660240
     3.4410      0.662780
     3.4415      0.665350
     3.4420      0.668090
     3.4425      0.670830
     3.4430      0.673260
     3.4435      0.675610
     3.4440      0.677770
     3.4445      0.679770
     3.4450      0.681750
     3.4455      0.683700
     3.4460      0.685660
     3.4465      0.687170
     3.4470      0.688660
     3.4475      0.690050
     3.4480      0.691390
     3.4485      0.692780
     3.4490      0.694270
     3.4495      0.695750
     3.4500      0.697180
     3.4505      0.698620
     3.4510      0.700030
     3.4515      0.701430
     3.4520      0.702800
     3.4525      0.704120
     3.4530      0.705450
     3.4535      0.706760
     3.4540      0.708070
     3.4545      0.708880
     3.4550      0.709620
     3.4555      0.710030
     3.4560      0.710220
     3.4565      0.710470
     3.4570      0.710910
     3.4575      0.711350
     3.4580      0.711250
     3.4585      0.711130
     3.4590      0.710490
     3.4595      0.709590
     3.4600      0.708610
     3.4605      0.707470
     3.4610      0.706310
     3.4615      0.704560
     3.4620      0.702820
     3.4625      0.701180
     3.4630      0.699580
     3.4635      0.698020
     3.4640      0.696490
     3.4645      0.694870
     3.4650      0.692430
     3.4655      0.690000
     3.4660      0.687480
     3.4665      0.684950
     3.4670      0.682440
     3.4675      0.679950
     3.4680      0.677350
     3.4685      0.674190
     3.4690      0.671030
     3.4695      0.667460
     3.4700      0.663810
     3.4705      0.660330
     3.4710      0.657010
     3.4715      0.653740
     3.4720      0.650700
     3.4725      0.647660
     3.4730      0.643610
     3.4735      0.639390
     3.4740      0.634970
     3.4745      0.630360
     3.4750      0.625880
     3.4755      0.621860
     3.4760      0.617840
     3.4765      0.613140
     3.4770      0.608350
     3.4775      0.603230
     3.4780      0.597850
     3.4785      0.592480
     3.4790      0.587140
     3.4795      0.581790
     3.4800      0.576760
     3.4805      0.571770
     3.4810      0.567140
     3.4815      0.562800
     3.4820      0.558390
     3.4825      0.553730
     3.4830      0.549060
     3.4835      0.544020
     3.4840      0.538920
     3.4845      0.533610
     3.4850      0.528130
     3.4855      0.522570
     3.4860      0.516710
     3.4865      0.510840
     3.4870      0.505420
     3.4875      0.500070
     3.4880      0.495000
     3.4885      0.490230
     3.4890      0.485480
     3.4895      0.480940
     3.4900      0.476400
     3.4905      0.471750
     3.4910      0.467080
     3.4915      0.462350
     3.4920      0.457560
     3.4925      0.452810
     3.4930      0.448400
     3.4935      0.444000
     3.4940      0.439700
     3.4945      0.435440
     3.4950      0.431060
     3.4955      0.426490
     3.4960      0.421920
     3.4965      0.417210
     3.4970      0.412500
     3.4975      0.408180
     3.4980      0.404040
     3.4985      0.400050
     3.4990      0.396390
     3.4995      0.392720
     3.5000      0.389320
     3.5005      0.385930
     3.5010      0.382600
     3.5015      0.379320
     3.5020      0.375800
     3.5025      0.371460
     3.5030      0.367120
     3.5035      0.362740
     3.5040      0.358350
     3.5045      0.354630
     3.5050      0.351570
     3.5055      0.348540
     3.5060      0.345700
     3.5065      0.342860
     3.5070      0.339910
     3.5075      0.336930
     3.5080      0.333910
     3.5085      0.330800
     3.5090      0.327700
     3.5095      0.324500
     3.5100      0.321290
     3.5105      0.318350
     3.5110      0.315550
     3.5115      0.312810
     3.5120      0.310250
     3.5125      0.307690
     3.5130      0.305340
     3.5135      0.303020
     3.5140      0.300730
     3.5145      0.298470
     3.5150      0.296160
     3.5155      0.293390
     3.5160      0.290620
     3.5165      0.287500
     3.5170      0.284250
     3.5175      0.281130
     3.5180      0.278240
     3.5185      0.275360
     3.5190      0.273590
     3.5195      0.271870
     3.5200      0.270330
     3.5205      0.268910
     3.5210      0.267460
     3.5215      0.265800
     3.5220      0.264140
     3.5225      0.262740
     3.5230      0.261410
     3.5235      0.259870
     3.5240      0.257990
     3.5245      0.256110
     3.5250      0.253630
     3.5255      0.251150
     3.5260      0.249430
     3.5265      0.248210
     3.5270      0.247140
     3.5275      0.246620
     3.5280      0.246090
     3.5285      0.244820
     3.5290      0.243360
     3.5295      0.241850
     3.5300      0.240270
     3.5305      0.238680
     3.5310      0.237460
     3.5315      0.236240
     3.5320      0.235050
     3.5325      0.233870
     3.5330      0.232800
     3.5335      0.232220
     3.5340      0.231650
     3.5345      0.231100
     3.5350      0.230550
     3.5355      0.229780
     3.5360      0.228630
     3.5365      0.227490
     3.5370      0.226340
     3.5375      0.225200
     3.5380      0.223970
     3.5385      0.222680
     3.5390      0.221410
     3.5395      0.220390
     3.5400      0.219360
     3.5405      0.218970
     3.5410      0.218840
     3.5415      0.218680
     3.5420      0.218470
     3.5425      0.218250
     3.5430      0.217340
     3.5435      0.216320
     3.5440      0.215340
     3.5445      0.214380
     3.5450      0.213460
     3.5455      0.213410
     3.5460      0.213370
     3.5465      0.213200
     3.5470      0.212940
     3.5475      0.212590
     3.5480      0.211760
     3.5485      0.210920
     3.5490      0.210450
     3.5495      0.210090
     3.5500      0.209660
     3.5505      0.209080
     3.5510      0.208500
     3.5515      0.207970
     3.5520      0.207440
     3.5525      0.207490
     3.5530      0.208230
     3.5535      0.208980
     3.5540      0.210500
     3.5545      0.212030
     3.5550      0.213230
     3.5555      0.214190
     3.5560      0.214860
     3.5565      0.213850
     3.5570      0.212830
     3.5575      0.212070
     3.5580      0.211410
     3.5585      0.211300
     3.5590      0.212680
     3.5595      0.214060
     3.5600      0.214400
     3.5605      0.214510
     3.5610      0.214060
     3.5615      0.212690
     3.5620      0.211320
     3.5625      0.210080
     3.5630      0.208850
     3.5635      0.207930
     3.5640      0.207340
     3.5645      0.206780
     3.5650      0.207280
     3.5655      0.207780
     3.5660      0.208040
     3.5665      0.208150
     3.5670      0.208350
     3.5675      0.209210
     3.5680      0.210070
     3.5685      0.211410
     3.5690      0.212970
     3.5695      0.213980
     3.5700      0.213010
     3.5705      0.212030
     3.5710      0.211610
     3.5715      0.211370
