# author : Oliver Czoske
# source : Ester Aranzana
# date_created : 2017-11-20
# date_modified: 2025-12-16
# status: Measured at 80 K
# wavelength_unit : um
# changes :
# - 2022-03-17 (KL) Updated to match Ric Davies' email
# - 2023-06-06 (RD) Modified profiles after discussion with Schott
# - 2025-06-16 (FH) Updated filter curve based on Ric Davies' email.
# - 2025-12-16 (OC) Replaced with measured values
#
 wavelength  transmission
     0.9990      0.000030
     0.9995      0.000030
     1.0000      0.000120
     1.0005      0.003390
     1.0010      0.000000
     1.0015      0.000920
     1.0020      0.000730
     1.0025      0.000830
     1.0030      0.000020
     1.0035      0.000000
     1.0040      0.001000
     1.0045      0.000000
     1.0050      0.000000
     1.0055      0.002930
     1.0060      0.002890
     1.0065      0.003650
     1.0070      0.002560
     1.0075      0.000000
     1.0080      0.000000
     1.0085      0.000000
     1.0090      0.000000
     1.0095      0.000000
     1.0100      0.000460
     1.0105      0.000000
     1.0110      0.000000
     1.0115      0.001390
     1.0120      0.000000
     1.0125      0.005740
     1.0130      0.001450
     1.0135      0.000000
     1.0140      0.000430
     1.0145      0.000000
     1.0150      0.000000
     1.0155      0.000000
     1.0160      0.001790
     1.0165      0.000660
     1.0170      0.003400
     1.0175      0.000000
     1.0180      0.000000
     1.0185      0.001100
     1.0190      0.001100
     1.0195      0.000000
     1.0200      0.000000
     1.0205      0.000000
     1.0210      0.000000
     1.0215      0.001670
     1.0220      0.000060
     1.0225      0.000000
     1.0230      0.003800
     1.0235      0.000000
     1.0240      0.000000
     1.0245      0.002080
     1.0250      0.000000
     1.0255      0.000000
     1.0260      0.001270
     1.0265      0.001470
     1.0270      0.000780
     1.0275      0.000000
     1.0280      0.000480
     1.0285      0.000610
     1.0290      0.000030
     1.0295      0.000030
     1.0300      0.001230
     1.0305      0.000000
     1.0310      0.001980
     1.0315      0.000000
     1.0320      0.002270
     1.0325      0.000300
     1.0330      0.000000
     1.0335      0.002510
     1.0340      0.000000
     1.0345      0.000000
     1.0350      0.000440
     1.0355      0.001360
     1.0360      0.001670
     1.0365      0.000120
     1.0370      0.001020
     1.0375      0.001490
     1.0380      0.000000
     1.0385      0.000000
     1.0390      0.001340
     1.0395      0.002080
     1.0400      0.002770
     1.0405      0.000220
     1.0410      0.001430
     1.0415      0.000000
     1.0420      0.001470
     1.0425      0.003090
     1.0430      0.000000
     1.0435      0.000360
     1.0440      0.001010
     1.0445      0.000000
     1.0450      0.000240
     1.0455      0.002060
     1.0460      0.000000
     1.0465      0.000890
     1.0470      0.001090
     1.0475      0.000000
     1.0480      0.000370
     1.0485      0.001950
     1.0490      0.001070
     1.0495      0.000390
     1.0500      0.000000
     1.0505      0.000690
     1.0510      0.000000
     1.0515      0.000760
     1.0520      0.001310
     1.0525      0.000000
     1.0530      0.000000
     1.0535      0.000000
     1.0540      0.000000
     1.0545      0.000000
     1.0550      0.001650
     1.0555      0.001080
     1.0560      0.002110
     1.0565      0.001120
     1.0570      0.000000
     1.0575      0.000310
     1.0580      0.001180
     1.0585      0.000000
     1.0590      0.000000
     1.0595      0.000000
     1.0600      0.000000
     1.0605      0.000110
     1.0610      0.001800
     1.0615      0.000000
     1.0620      0.000470
     1.0625      0.000000
     1.0630      0.000020
     1.0635      0.000290
     1.0640      0.001410
     1.0645      0.000000
     1.0650      0.000000
     1.0655      0.000100
     1.0660      0.000570
     1.0665      0.001420
     1.0670      0.000000
     1.0675      0.000000
     1.0680      0.002260
     1.0685      0.001580
     1.0690      0.000000
     1.0695      0.000000
     1.0700      0.001750
     1.0705      0.001230
     1.0710      0.000110
     1.0715      0.000660
     1.0720      0.000000
     1.0725      0.000040
     1.0730      0.000000
     1.0735      0.000130
     1.0740      0.000170
     1.0745      0.002020
     1.0750      0.000360
     1.0755      0.000000
     1.0760      0.000230
     1.0765      0.000620
     1.0770      0.000370
     1.0775      0.001840
     1.0780      0.000090
     1.0785      0.000000
     1.0790      0.000060
     1.0795      0.000290
     1.0800      0.000000
     1.0805      0.000090
     1.0810      0.000530
     1.0815      0.000000
     1.0820      0.000000
     1.0825      0.000310
     1.0830      0.002180
     1.0835      0.002130
     1.0840      0.000000
     1.0845      0.001710
     1.0850      0.001860
     1.0855      0.000000
     1.0860      0.000000
     1.0865      0.000000
     1.0870      0.000220
     1.0875      0.000000
     1.0880      0.000000
     1.0885      0.003690
     1.0890      0.001620
     1.0895      0.002640
     1.0900      0.000000
     1.0905      0.000740
     1.0910      0.000290
     1.0915      0.000000
     1.0920      0.000000
     1.0925      0.000000
     1.0930      0.002380
     1.0935      0.000000
     1.0940      0.000000
     1.0945      0.001080
     1.0950      0.000160
     1.0955      0.000000
     1.0960      0.000560
     1.0965      0.000000
     1.0970      0.000000
     1.0975      0.001290
     1.0980      0.000250
     1.0985      0.000930
     1.0990      0.000010
     1.0995      0.000000
     1.1000      0.001870
     1.1005      0.000090
     1.1010      0.000440
     1.1015      0.000400
     1.1020      0.000000
     1.1025      0.000930
     1.1030      0.001850
     1.1035      0.000260
     1.1040      0.001530
     1.1045      0.000050
     1.1050      0.002420
     1.1055      0.000000
     1.1060      0.000000
     1.1065      0.000000
     1.1070      0.000000
     1.1075      0.001470
     1.1080      0.001000
     1.1085      0.001230
     1.1090      0.000670
     1.1095      0.001040
     1.1100      0.000000
     1.1105      0.000190
     1.1110      0.000020
     1.1115      0.000260
     1.1120      0.000000
     1.1125      0.000000
     1.1130      0.000430
     1.1135      0.000000
     1.1140      0.000000
     1.1145      0.000000
     1.1150      0.000000
     1.1155      0.001220
     1.1160      0.000380
     1.1165      0.000040
     1.1170      0.002390
     1.1175      0.000050
     1.1180      0.000000
     1.1185      0.000680
     1.1190      0.000000
     1.1195      0.000730
     1.1200      0.000000
     1.1205      0.000480
     1.1210      0.000000
     1.1215      0.000000
     1.1220      0.000000
     1.1225      0.001330
     1.1230      0.001090
     1.1235      0.000340
     1.1240      0.000880
     1.1245      0.000250
     1.1250      0.002560
     1.1255      0.002230
     1.1260      0.000410
     1.1265      0.000000
     1.1270      0.000000
     1.1275      0.000750
     1.1280      0.000560
     1.1285      0.000000
     1.1290      0.001280
     1.1295      0.000060
     1.1300      0.000000
     1.1305      0.000000
     1.1310      0.000610
     1.1315      0.000000
     1.1320      0.000000
     1.1325      0.001480
     1.1330      0.000070
     1.1335      0.000000
     1.1340      0.000000
     1.1345      0.000000
     1.1350      0.000000
     1.1355      0.001330
     1.1360      0.000420
     1.1365      0.000000
     1.1370      0.000030
     1.1375      0.000420
     1.1380      0.000000
     1.1385      0.000000
     1.1390      0.000000
     1.1395      0.000640
     1.1400      0.001430
     1.1405      0.000000
     1.1410      0.000100
     1.1415      0.000390
     1.1420      0.000000
     1.1425      0.000000
     1.1430      0.001000
     1.1435      0.001670
     1.1440      0.000460
     1.1445      0.000980
     1.1450      0.001080
     1.1455      0.000000
     1.1460      0.000000
     1.1465      0.000000
     1.1470      0.000000
     1.1475      0.000190
     1.1480      0.000000
     1.1485      0.000000
     1.1490      0.000280
     1.1495      0.000020
     1.1500      0.000550
     1.1505      0.000910
     1.1510      0.000440
     1.1515      0.000000
     1.1520      0.000000
     1.1525      0.000000
     1.1530      0.000000
     1.1535      0.000000
     1.1540      0.000000
     1.1545      0.000610
     1.1550      0.000320
     1.1555      0.000000
     1.1560      0.000240
     1.1565      0.000000
     1.1570      0.000000
     1.1575      0.000960
     1.1580      0.000290
     1.1585      0.001440
     1.1590      0.000000
     1.1595      0.000000
     1.1600      0.000130
     1.1605      0.001730
     1.1610      0.000000
     1.1615      0.000510
     1.1620      0.000000
     1.1625      0.000000
     1.1630      0.000000
     1.1635      0.000000
     1.1640      0.000000
     1.1645      0.000090
     1.1650      0.000000
     1.1655      0.000000
     1.1660      0.000000
     1.1665      0.000380
     1.1670      0.000140
     1.1675      0.000000
     1.1680      0.000230
     1.1685      0.000000
     1.1690      0.000000
     1.1695      0.000000
     1.1700      0.000000
     1.1705      0.000000
     1.1710      0.000000
     1.1715      0.000000
     1.1720      0.000000
     1.1725      0.000000
     1.1730      0.000780
     1.1735      0.000000
     1.1740      0.000150
     1.1745      0.001780
     1.1750      0.001290
     1.1755      0.000000
     1.1760      0.000000
     1.1765      0.000050
     1.1770      0.000000
     1.1775      0.000960
     1.1780      0.000000
     1.1785      0.000280
     1.1790      0.001360
     1.1795      0.000000
     1.1800      0.000040
     1.1805      0.000000
     1.1810      0.000010
     1.1815      0.000290
     1.1820      0.000000
     1.1825      0.000790
     1.1830      0.001760
     1.1835      0.000000
     1.1840      0.000890
     1.1845      0.000670
     1.1850      0.001490
     1.1855      0.001140
     1.1860      0.000130
     1.1865      0.000080
     1.1870      0.000300
     1.1875      0.000380
     1.1880      0.000660
     1.1885      0.001320
     1.1890      0.000030
     1.1895      0.000490
     1.1900      0.000410
     1.1905      0.000090
     1.1910      0.000150
     1.1915      0.000100
     1.1920      0.000780
     1.1925      0.001770
     1.1930      0.001350
     1.1935      0.000000
     1.1940      0.000000
     1.1945      0.001390
     1.1950      0.000000
     1.1955      0.000170
     1.1960      0.000000
     1.1965      0.000000
     1.1970      0.001240
     1.1975      0.000000
     1.1980      0.001240
     1.1985      0.000110
     1.1990      0.000000
     1.1995      0.000000
     1.2000      0.000130
     1.2005      0.000000
     1.2010      0.000000
     1.2015      0.000000
     1.2020      0.000040
     1.2025      0.000000
     1.2030      0.000000
     1.2035      0.000160
     1.2040      0.000650
     1.2045      0.000000
     1.2050      0.000800
     1.2055      0.001390
     1.2060      0.000090
     1.2065      0.000650
     1.2070      0.000160
     1.2075      0.000900
     1.2080      0.002060
     1.2085      0.000000
     1.2090      0.000800
     1.2095      0.000030
     1.2100      0.000760
     1.2105      0.000770
     1.2110      0.000850
     1.2115      0.000820
     1.2120      0.000130
     1.2125      0.000390
     1.2130      0.000050
     1.2135      0.000000
     1.2140      0.000140
     1.2145      0.000550
     1.2150      0.000000
     1.2155      0.000000
     1.2160      0.000060
     1.2165      0.000000
     1.2170      0.000000
     1.2175      0.000170
     1.2180      0.000140
     1.2185      0.000090
     1.2190      0.000000
     1.2195      0.000000
     1.2200      0.000000
     1.2205      0.000000
     1.2210      0.001270
     1.2215      0.000000
     1.2220      0.000820
     1.2225      0.000000
     1.2230      0.000870
     1.2235      0.000000
     1.2240      0.001560
     1.2245      0.000250
     1.2250      0.000860
     1.2255      0.000000
     1.2260      0.000000
     1.2265      0.001120
     1.2270      0.000000
     1.2275      0.001710
     1.2280      0.001030
     1.2285      0.000430
     1.2290      0.000930
     1.2295      0.000130
     1.2300      0.000000
     1.2305      0.000400
     1.2310      0.000050
     1.2315      0.000000
     1.2320      0.000000
     1.2325      0.000370
     1.2330      0.001610
     1.2335      0.000000
     1.2340      0.000600
     1.2345      0.000140
     1.2350      0.000010
     1.2355      0.000000
     1.2360      0.000150
     1.2365      0.000000
     1.2370      0.000250
     1.2375      0.000770
     1.2380      0.000470
     1.2385      0.000930
     1.2390      0.002170
     1.2395      0.000000
     1.2400      0.000050
     1.2405      0.000970
     1.2410      0.000000
     1.2415      0.000870
     1.2420      0.000250
     1.2425      0.000230
     1.2430      0.000000
     1.2435      0.000340
     1.2440      0.000240
     1.2445      0.000080
     1.2450      0.000600
     1.2455      0.000460
     1.2460      0.000170
     1.2465      0.000510
     1.2470      0.001270
     1.2475      0.000390
     1.2480      0.000000
     1.2485      0.000330
     1.2490      0.000620
     1.2495      0.000240
     1.2500      0.000200
     1.2505      0.000000
     1.2510      0.000090
     1.2515      0.000100
     1.2520      0.000000
     1.2525      0.000000
     1.2530      0.000000
     1.2535      0.001120
     1.2540      0.000190
     1.2545      0.001060
     1.2550      0.000000
     1.2555      0.001020
     1.2560      0.000040
     1.2565      0.000000
     1.2570      0.000000
     1.2575      0.000100
     1.2580      0.000000
     1.2585      0.000010
     1.2590      0.000000
     1.2595      0.000110
     1.2600      0.000050
     1.2605      0.000000
     1.2610      0.000000
     1.2615      0.000000
     1.2620      0.001030
     1.2625      0.000000
     1.2630      0.000920
     1.2635      0.000860
     1.2640      0.000000
     1.2645      0.000000
     1.2650      0.000000
     1.2655      0.000000
     1.2660      0.000000
     1.2665      0.000770
     1.2670      0.000880
     1.2675      0.000000
     1.2680      0.000510
     1.2685      0.000750
     1.2690      0.000560
     1.2695      0.000000
     1.2700      0.000580
     1.2705      0.000200
     1.2710      0.001730
     1.2715      0.000820
     1.2720      0.001210
     1.2725      0.000100
     1.2730      0.000310
     1.2735      0.001030
     1.2740      0.000370
     1.2745      0.000000
     1.2750      0.000360
     1.2755      0.000300
     1.2760      0.000240
     1.2765      0.000210
     1.2770      0.000020
     1.2775      0.000780
     1.2780      0.000000
     1.2785      0.000660
     1.2790      0.000360
     1.2795      0.000210
     1.2800      0.000450
     1.2805      0.000560
     1.2810      0.000040
     1.2815      0.000120
     1.2820      0.000100
     1.2825      0.000340
     1.2830      0.000750
     1.2835      0.000500
     1.2840      0.000160
     1.2845      0.000370
     1.2850      0.000000
     1.2855      0.000000
     1.2860      0.000030
     1.2865      0.001130
     1.2870      0.001060
     1.2875      0.000630
     1.2880      0.000310
     1.2885      0.000630
     1.2890      0.000000
     1.2895      0.000170
     1.2900      0.000390
     1.2905      0.000560
     1.2910      0.000000
     1.2915      0.000060
     1.2920      0.000690
     1.2925      0.000280
     1.2930      0.000300
     1.2935      0.000000
     1.2940      0.000000
     1.2945      0.000100
     1.2950      0.000000
     1.2955      0.000060
     1.2960      0.000010
     1.2965      0.000230
     1.2970      0.000100
     1.2975      0.000120
     1.2980      0.000160
     1.2985      0.000000
     1.2990      0.000080
     1.2995      0.000570
     1.3000      0.000370
     1.3005      0.000480
     1.3010      0.000390
     1.3015      0.000920
     1.3020      0.000000
     1.3025      0.000020
     1.3030      0.000470
     1.3035      0.000430
     1.3040      0.000000
     1.3045      0.000390
     1.3050      0.000080
     1.3055      0.000000
     1.3060      0.000520
     1.3065      0.000040
     1.3070      0.000070
     1.3075      0.000020
     1.3080      0.000000
     1.3085      0.000600
     1.3090      0.000850
     1.3095      0.001480
     1.3100      0.000310
     1.3105      0.000250
     1.3110      0.000000
     1.3115      0.000000
     1.3120      0.000420
     1.3125      0.000340
     1.3130      0.000000
     1.3135      0.000000
     1.3140      0.000200
     1.3145      0.001400
     1.3150      0.001200
     1.3155      0.000200
     1.3160      0.000230
     1.3165      0.000000
     1.3170      0.000130
     1.3175      0.000000
     1.3180      0.000000
     1.3185      0.000170
     1.3190      0.000000
     1.3195      0.000000
     1.3200      0.000000
     1.3205      0.000210
     1.3210      0.001310
     1.3215      0.000680
     1.3220      0.000160
     1.3225      0.000000
     1.3230      0.000240
     1.3235      0.000000
     1.3240      0.000000
     1.3245      0.000000
     1.3250      0.000000
     1.3255      0.000060
     1.3260      0.000220
     1.3265      0.000070
     1.3270      0.000000
     1.3275      0.000200
     1.3280      0.000000
     1.3285      0.000000
     1.3290      0.000000
     1.3295      0.000060
     1.3300      0.000500
     1.3305      0.001240
     1.3310      0.000220
     1.3315      0.000550
     1.3320      0.000000
     1.3325      0.000240
     1.3330      0.000310
     1.3335      0.000200
     1.3340      0.000100
     1.3345      0.000000
     1.3350      0.000000
     1.3355      0.000000
     1.3360      0.000610
     1.3365      0.000320
     1.3370      0.000270
     1.3375      0.001110
     1.3380      0.000650
     1.3385      0.000000
     1.3390      0.000000
     1.3395      0.000000
     1.3400      0.000510
     1.3405      0.000230
     1.3410      0.000000
     1.3415      0.000200
     1.3420      0.000030
     1.3425      0.000000
     1.3430      0.000430
     1.3435      0.001240
     1.3440      0.000160
     1.3445      0.001000
     1.3450      0.000130
     1.3455      0.000000
     1.3460      0.000260
     1.3465      0.000070
     1.3470      0.000000
     1.3475      0.000000
     1.3480      0.000360
     1.3485      0.000160
     1.3490      0.000080
     1.3495      0.000220
     1.3500      0.000000
     1.3505      0.000590
     1.3510      0.001020
     1.3515      0.000000
     1.3520      0.000000
     1.3525      0.000300
     1.3530      0.000000
     1.3535      0.000000
     1.3540      0.000000
     1.3545      0.000110
     1.3550      0.000830
     1.3555      0.001280
     1.3560      0.000040
     1.3565      0.000000
     1.3570      0.000050
     1.3575      0.000000
     1.3580      0.000000
     1.3585      0.000650
     1.3590      0.000000
     1.3595      0.000510
     1.3600      0.000070
     1.3605      0.000000
     1.3610      0.000300
     1.3615      0.000030
     1.3620      0.000220
     1.3625      0.000300
     1.3630      0.000270
     1.3635      0.000000
     1.3640      0.000000
     1.3645      0.000270
     1.3650      0.000000
     1.3655      0.000000
     1.3660      0.000070
     1.3665      0.001170
     1.3670      0.000050
     1.3675      0.000310
     1.3680      0.000000
     1.3685      0.000000
     1.3690      0.000100
     1.3695      0.000760
     1.3700      0.000080
     1.3705      0.000000
     1.3710      0.000000
     1.3715      0.000410
     1.3720      0.000000
     1.3725      0.000000
     1.3730      0.000850
     1.3735      0.000000
     1.3740      0.000000
     1.3745      0.000350
     1.3750      0.000470
     1.3755      0.000280
     1.3760      0.000800
     1.3765      0.000280
     1.3770      0.000100
     1.3775      0.000000
     1.3780      0.000470
     1.3785      0.000000
     1.3790      0.000000
     1.3795      0.000740
     1.3800      0.000000
     1.3805      0.000040
     1.3810      0.000000
     1.3815      0.000000
     1.3820      0.000050
     1.3825      0.000040
     1.3830      0.000330
     1.3835      0.001080
     1.3840      0.000590
     1.3845      0.000320
     1.3850      0.000400
     1.3855      0.000000
     1.3860      0.000530
     1.3865      0.000050
     1.3870      0.000370
     1.3875      0.000160
     1.3880      0.000370
     1.3885      0.000720
     1.3890      0.000000
     1.3895      0.000170
     1.3900      0.000400
     1.3905      0.000200
     1.3910      0.000630
     1.3915      0.000050
     1.3920      0.000020
     1.3925      0.000030
     1.3930      0.000000
     1.3935      0.000770
     1.3940      0.000490
     1.3945      0.000380
     1.3950      0.000000
     1.3955      0.000000
     1.3960      0.000000
     1.3965      0.000220
     1.3970      0.000000
     1.3975      0.000100
     1.3980      0.000000
     1.3985      0.000120
     1.3990      0.000560
     1.3995      0.000000
     1.4000      0.000050
     1.4005      0.000080
     1.4010      0.000140
     1.4015      0.000160
     1.4020      0.000000
     1.4025      0.000000
     1.4030      0.000000
     1.4035      0.000050
     1.4040      0.000020
     1.4045      0.000000
     1.4050      0.000000
     1.4055      0.000170
     1.4060      0.000000
     1.4065      0.000000
     1.4070      0.000070
     1.4075      0.000000
     1.4080      0.000580
     1.4085      0.000020
     1.4090      0.000420
     1.4095      0.000000
     1.4100      0.000410
     1.4105      0.000160
     1.4110      0.000050
     1.4115      0.000070
     1.4120      0.000000
     1.4125      0.000380
     1.4130      0.000000
     1.4135      0.000000
     1.4140      0.000000
     1.4145      0.000000
     1.4150      0.000000
     1.4155      0.000450
     1.4160      0.000460
     1.4165      0.000240
     1.4170      0.000090
     1.4175      0.000190
     1.4180      0.000160
     1.4185      0.000040
     1.4190      0.000690
     1.4195      0.000130
     1.4200      0.000000
     1.4205      0.000110
     1.4210      0.001070
     1.4215      0.000570
     1.4220      0.000000
     1.4225      0.000360
     1.4230      0.000250
     1.4235      0.000070
     1.4240      0.000000
     1.4245      0.000700
     1.4250      0.000020
     1.4255      0.000000
     1.4260      0.000630
     1.4265      0.000000
     1.4270      0.000000
     1.4275      0.000410
     1.4280      0.000050
     1.4285      0.000020
     1.4290      0.000470
     1.4295      0.000350
     1.4300      0.000650
     1.4305      0.000150
     1.4310      0.000010
     1.4315      0.000310
     1.4320      0.000500
     1.4325      0.000060
     1.4330      0.000200
     1.4335      0.000250
     1.4340      0.000000
     1.4345      0.000070
     1.4350      0.000000
     1.4355      0.000000
     1.4360      0.000000
     1.4365      0.000330
     1.4370      0.000410
     1.4375      0.001050
     1.4380      0.000340
     1.4385      0.000000
     1.4390      0.000040
     1.4395      0.000000
     1.4400      0.000000
     1.4405      0.000540
     1.4410      0.000740
     1.4415      0.000230
     1.4420      0.000220
     1.4425      0.000040
     1.4430      0.000740
     1.4435      0.000240
     1.4440      0.000000
     1.4445      0.000130
     1.4450      0.000330
     1.4455      0.000000
     1.4460      0.000060
     1.4465      0.000130
     1.4470      0.000470
     1.4475      0.000170
     1.4480      0.000000
     1.4485      0.000480
     1.4490      0.000210
     1.4495      0.000310
     1.4500      0.000290
     1.4505      0.000070
     1.4510      0.000510
     1.4515      0.000700
     1.4520      0.000360
     1.4525      0.000000
     1.4530      0.000000
     1.4535      0.000000
     1.4540      0.000110
     1.4545      0.000480
     1.4550      0.000150
     1.4555      0.000040
     1.4560      0.000260
     1.4565      0.000070
     1.4570      0.000460
     1.4575      0.000000
     1.4580      0.000120
     1.4585      0.000090
     1.4590      0.000000
     1.4595      0.000580
     1.4600      0.000060
     1.4605      0.000110
     1.4610      0.000680
     1.4615      0.000190
     1.4620      0.000330
     1.4625      0.000000
     1.4630      0.000000
     1.4635      0.000770
     1.4640      0.000350
     1.4645      0.000160
     1.4650      0.000330
     1.4655      0.000550
     1.4660      0.000420
     1.4665      0.000000
     1.4670      0.000000
     1.4675      0.000000
     1.4680      0.000340
     1.4685      0.000000
     1.4690      0.000240
     1.4695      0.000470
     1.4700      0.000000
     1.4705      0.000000
     1.4710      0.000000
     1.4715      0.000130
     1.4720      0.000040
     1.4725      0.000160
     1.4730      0.000610
     1.4735      0.000230
     1.4740      0.000640
     1.4745      0.000440
     1.4750      0.000400
     1.4755      0.000280
     1.4760      0.000310
     1.4765      0.000080
     1.4770      0.000360
     1.4775      0.000000
     1.4780      0.000570
     1.4785      0.000740
     1.4790      0.000060
     1.4795      0.000590
     1.4800      0.000010
     1.4805      0.000080
     1.4810      0.000650
     1.4815      0.000230
     1.4820      0.000000
     1.4825      0.000270
     1.4830      0.000000
     1.4835      0.000000
     1.4840      0.000000
     1.4845      0.000000
     1.4850      0.000000
     1.4855      0.000000
     1.4860      0.000000
     1.4865      0.000000
     1.4870      0.000360
     1.4875      0.000140
     1.4880      0.000000
     1.4885      0.000000
     1.4890      0.000050
     1.4895      0.000460
     1.4900      0.000080
     1.4905      0.000000
     1.4910      0.000000
     1.4915      0.000000
     1.4920      0.000070
     1.4925      0.000210
     1.4930      0.000000
     1.4935      0.000000
     1.4940      0.000000
     1.4945      0.000000
     1.4950      0.000000
     1.4955      0.000000
     1.4960      0.000000
     1.4965      0.000000
     1.4970      0.000000
     1.4975      0.000000
     1.4980      0.000000
     1.4985      0.000000
     1.4990      0.000000
     1.4995      0.000000
     1.5000      0.000000
     1.5005      0.000000
     1.5010      0.000000
     1.5015      0.000000
     1.5020      0.000000
     1.5025      0.000000
     1.5030      0.000000
     1.5035      0.000000
     1.5040      0.000000
     1.5045      0.000000
     1.5050      0.000000
     1.5055      0.000000
     1.5060      0.000000
     1.5065      0.000000
     1.5070      0.000000
     1.5075      0.000000
     1.5080      0.000000
     1.5085      0.000000
     1.5090      0.000000
     1.5095      0.000000
     1.5100      0.000000
     1.5105      0.000000
     1.5110      0.000000
     1.5115      0.000000
     1.5120      0.000000
     1.5125      0.000000
     1.5130      0.000000
     1.5135      0.000000
     1.5140      0.000000
     1.5145      0.000000
     1.5150      0.000000
     1.5155      0.000000
     1.5160      0.000000
     1.5165      0.000000
     1.5170      0.000000
     1.5175      0.000000
     1.5180      0.000000
     1.5185      0.000180
     1.5190      0.000000
     1.5195      0.000000
     1.5200      0.000000
     1.5205      0.000000
     1.5210      0.000000
     1.5215      0.000000
     1.5220      0.000000
     1.5225      0.000000
     1.5230      0.000000
     1.5235      0.000000
     1.5240      0.000000
     1.5245      0.000000
     1.5250      0.000000
     1.5255      0.000000
     1.5260      0.000000
     1.5265      0.000000
     1.5270      0.000000
     1.5275      0.000000
     1.5280      0.000000
     1.5285      0.000000
     1.5290      0.000000
     1.5295      0.000000
     1.5300      0.000000
     1.5305      0.000000
     1.5310      0.000000
     1.5315      0.000000
     1.5320      0.000000
     1.5325      0.000000
     1.5330      0.000000
     1.5335      0.000000
     1.5340      0.000000
     1.5345      0.000000
     1.5350      0.000000
     1.5355      0.000000
     1.5360      0.000000
     1.5365      0.000000
     1.5370      0.000000
     1.5375      0.000010
     1.5380      0.000170
     1.5385      0.000000
     1.5390      0.000010
     1.5395      0.000000
     1.5400      0.000010
     1.5405      0.000220
     1.5410      0.000000
     1.5415      0.000000
     1.5420      0.000000
     1.5425      0.000070
     1.5430      0.000440
     1.5435      0.000000
     1.5440      0.000000
     1.5445      0.000000
     1.5450      0.000090
     1.5455      0.000050
     1.5460      0.000000
     1.5465      0.000000
     1.5470      0.000000
     1.5475      0.000000
     1.5480      0.000000
     1.5485      0.000000
     1.5490      0.000000
     1.5495      0.000000
     1.5500      0.000000
     1.5505      0.000000
     1.5510      0.000000
     1.5515      0.000000
     1.5520      0.000000
     1.5525      0.000000
     1.5530      0.000000
     1.5535      0.000000
     1.5540      0.000000
     1.5545      0.000000
     1.5550      0.000000
     1.5555      0.000000
     1.5560      0.000000
     1.5565      0.000000
     1.5570      0.000000
     1.5575      0.000000
     1.5580      0.000000
     1.5585      0.000000
     1.5590      0.000000
     1.5595      0.000000
     1.5600      0.000000
     1.5605      0.000000
     1.5610      0.000000
     1.5615      0.000000
     1.5620      0.000000
     1.5625      0.000000
     1.5630      0.000000
     1.5635      0.000000
     1.5640      0.000000
     1.5645      0.000000
     1.5650      0.000000
     1.5655      0.000000
     1.5660      0.000000
     1.5665      0.000000
     1.5670      0.000000
     1.5675      0.000000
     1.5680      0.000000
     1.5685      0.000000
     1.5690      0.000000
     1.5695      0.000000
     1.5700      0.000000
     1.5705      0.000000
     1.5710      0.000000
     1.5715      0.000000
     1.5720      0.000000
     1.5725      0.000000
     1.5730      0.000000
     1.5735      0.000000
     1.5740      0.000000
     1.5745      0.000000
     1.5750      0.000000
     1.5755      0.000000
     1.5760      0.000000
     1.5765      0.000000
     1.5770      0.000000
     1.5775      0.000000
     1.5780      0.000000
     1.5785      0.000000
     1.5790      0.000000
     1.5795      0.000000
     1.5800      0.000000
     1.5805      0.000000
     1.5810      0.000000
     1.5815      0.000000
     1.5820      0.000000
     1.5825      0.000000
     1.5830      0.000000
     1.5835      0.000000
     1.5840      0.000000
     1.5845      0.000000
     1.5850      0.000000
     1.5855      0.000000
     1.5860      0.000000
     1.5865      0.000000
     1.5870      0.000000
     1.5875      0.000000
     1.5880      0.000000
     1.5885      0.000000
     1.5890      0.000000
     1.5895      0.000000
     1.5900      0.000000
     1.5905      0.000000
     1.5910      0.000000
     1.5915      0.000000
     1.5920      0.000000
     1.5925      0.000000
     1.5930      0.000000
     1.5935      0.000000
     1.5940      0.000000
     1.5945      0.000000
     1.5950      0.000000
     1.5955      0.000000
     1.5960      0.000000
     1.5965      0.000000
     1.5970      0.000000
     1.5975      0.000000
     1.5980      0.000000
     1.5985      0.000000
     1.5990      0.000000
     1.5995      0.000000
     1.6000      0.000000
     1.6005      0.000000
     1.6010      0.000000
     1.6015      0.000000
     1.6020      0.000000
     1.6025      0.000000
     1.6030      0.000000
     1.6035      0.000000
     1.6040      0.000000
     1.6045      0.000000
     1.6050      0.000000
     1.6055      0.000000
     1.6060      0.000000
     1.6065      0.000000
     1.6070      0.000000
     1.6075      0.000000
     1.6080      0.000000
     1.6085      0.000000
     1.6090      0.000000
     1.6095      0.000000
     1.6100      0.000000
     1.6105      0.000070
     1.6110      0.000280
     1.6115      0.000000
     1.6120      0.000160
     1.6125      0.000500
     1.6130      0.000750
     1.6135      0.000650
     1.6140      0.001080
     1.6145      0.001290
     1.6150      0.001250
     1.6155      0.001910
     1.6160      0.002440
     1.6165      0.002410
     1.6170      0.003200
     1.6175      0.004090
     1.6180      0.004690
     1.6185      0.005920
     1.6190      0.006590
     1.6195      0.008090
     1.6200      0.009490
     1.6205      0.010930
     1.6210      0.012300
     1.6215      0.014170
     1.6220      0.015810
     1.6225      0.018390
     1.6230      0.021430
     1.6235      0.025000
     1.6240      0.028230
     1.6245      0.032910
     1.6250      0.038820
     1.6255      0.043950
     1.6260      0.051260
     1.6265      0.059220
     1.6270      0.067440
     1.6275      0.077330
     1.6280      0.088400
     1.6285      0.102100
     1.6290      0.117550
     1.6295      0.133420
     1.6300      0.151840
     1.6305      0.172950
     1.6310      0.196560
     1.6315      0.222300
     1.6320      0.250680
     1.6325      0.281440
     1.6330      0.315410
     1.6335      0.350870
     1.6340      0.389410
     1.6345      0.429230
     1.6350      0.469850
     1.6355      0.512460
     1.6360      0.553760
     1.6365      0.596410
     1.6370      0.638210
     1.6375      0.677400
     1.6380      0.715390
     1.6385      0.750960
     1.6390      0.783880
     1.6395      0.813520
     1.6400      0.840060
     1.6405      0.864580
     1.6410      0.886400
     1.6415      0.904290
     1.6420      0.920190
     1.6425      0.933500
     1.6430      0.944520
     1.6435      0.954540
     1.6440      0.962250
     1.6445      0.968910
     1.6450      0.974250
     1.6455      0.978580
     1.6460      0.982880
     1.6465      0.986910
     1.6470      0.989080
     1.6475      0.990920
     1.6480      0.993410
     1.6485      0.995050
     1.6490      0.996630
     1.6495      0.997610
     1.6500      1.000120
     1.6505      1.000900
     1.6510      1.001900
     1.6515      1.002820
     1.6520      1.003640
     1.6525      1.003670
     1.6530      1.003900
     1.6535      1.006020
     1.6540      1.006130
     1.6545      1.006510
     1.6550      1.008030
     1.6555      1.008950
     1.6560      1.009650
     1.6565      1.009940
     1.6570      1.010270
     1.6575      1.009670
     1.6580      1.010110
     1.6585      1.011210
     1.6590      1.010010
     1.6595      1.010730
     1.6600      1.011910
     1.6605      1.011240
     1.6610      1.010400
     1.6615      1.010620
     1.6620      1.011570
     1.6625      1.011900
     1.6630      1.012030
     1.6635      1.011730
     1.6640      1.010550
     1.6645      1.010040
     1.6650      1.010910
     1.6655      1.011400
     1.6660      1.011280
     1.6665      1.011050
     1.6670      1.012140
     1.6675      1.012140
     1.6680      1.012520
     1.6685      1.012030
     1.6690      1.012860
     1.6695      1.013990
     1.6700      1.012930
     1.6705      1.014080
     1.6710      1.013820
     1.6715      1.014400
     1.6720      1.015110
     1.6725      1.015790
     1.6730      1.015350
     1.6735      1.017850
     1.6740      1.017530
     1.6745      1.016960
     1.6750      1.017590
     1.6755      1.017960
     1.6760      1.018030
     1.6765      1.018630
     1.6770      1.019000
     1.6775      1.019380
     1.6780      1.019170
     1.6785      1.019160
     1.6790      1.019270
     1.6795      1.018560
     1.6800      1.018270
     1.6805      1.018900
     1.6810      1.018750
     1.6815      1.017760
     1.6820      1.018380
     1.6825      1.018300
     1.6830      1.017910
     1.6835      1.017490
     1.6840      1.017510
     1.6845      1.016150
     1.6850      1.016240
     1.6855      1.016610
     1.6860      1.015630
     1.6865      1.015660
     1.6870      1.016450
     1.6875      1.015810
     1.6880      1.014670
     1.6885      1.015970
     1.6890      1.015590
     1.6895      1.015710
     1.6900      1.016090
     1.6905      1.015790
     1.6910      1.015570
     1.6915      1.016780
     1.6920      1.016150
     1.6925      1.014980
     1.6930      1.014740
     1.6935      1.014620
     1.6940      1.014560
     1.6945      1.014690
     1.6950      1.013350
     1.6955      1.013800
     1.6960      1.013280
     1.6965      1.012690
     1.6970      1.011830
     1.6975      1.011540
     1.6980      1.011090
     1.6985      1.009720
     1.6990      1.009880
     1.6995      1.008760
     1.7000      1.008850
     1.7005      1.008090
     1.7010      1.008300
     1.7015      1.008370
     1.7020      1.008320
     1.7025      1.007730
     1.7030      1.008010
     1.7035      1.007690
     1.7040      1.007700
     1.7045      1.008250
     1.7050      1.008880
     1.7055      1.009320
     1.7060      1.009570
     1.7065      1.009880
     1.7070      1.011460
     1.7075      1.012480
     1.7080      1.012310
     1.7085      1.012980
     1.7090      1.013640
     1.7095      1.014350
     1.7100      1.015070
     1.7105      1.014850
     1.7110      1.015440
     1.7115      1.016250
     1.7120      1.016390
     1.7125      1.016740
     1.7130      1.016280
     1.7135      1.016020
     1.7140      1.016430
     1.7145      1.015200
     1.7150      1.013610
     1.7155      1.013850
     1.7160      1.013560
     1.7165      1.012550
     1.7170      1.011550
     1.7175      1.010610
     1.7180      1.009270
     1.7185      1.007130
     1.7190      1.006500
     1.7195      1.006310
     1.7200      1.005040
     1.7205      1.003900
     1.7210      1.002540
     1.7215      1.001980
     1.7220      1.002410
     1.7225      1.000640
     1.7230      1.001180
     1.7235      1.001380
     1.7240      1.002730
     1.7245      1.003090
     1.7250      1.004250
     1.7255      1.005980
     1.7260      1.005990
     1.7265      1.006650
     1.7270      1.009160
     1.7275      1.010470
     1.7280      1.011350
     1.7285      1.012100
     1.7290      1.012820
     1.7295      1.013670
     1.7300      1.014050
     1.7305      1.014130
     1.7310      1.012590
     1.7315      1.010700
     1.7320      1.008550
     1.7325      1.005960
     1.7330      1.001280
     1.7335      0.996360
     1.7340      0.990200
     1.7345      0.983960
     1.7350      0.976160
     1.7355      0.968310
     1.7360      0.959830
     1.7365      0.952020
     1.7370      0.942530
     1.7375      0.933750
     1.7380      0.924890
     1.7385      0.915920
     1.7390      0.909000
     1.7395      0.902050
     1.7400      0.895590
     1.7405      0.890480
     1.7410      0.886410
     1.7415      0.883290
     1.7420      0.881150
     1.7425      0.880550
     1.7430      0.880460
     1.7435      0.880830
     1.7440      0.881680
     1.7445      0.880300
     1.7450      0.877470
     1.7455      0.870860
     1.7460      0.858310
     1.7465      0.839160
     1.7470      0.809810
     1.7475      0.770750
     1.7480      0.721730
     1.7485      0.662200
     1.7490      0.596420
     1.7495      0.528150
     1.7500      0.459520
     1.7505      0.394110
     1.7510      0.333510
     1.7515      0.280550
     1.7520      0.234430
     1.7525      0.195200
     1.7530      0.162120
     1.7535      0.135060
     1.7540      0.112870
     1.7545      0.094020
     1.7550      0.079610
     1.7555      0.067500
     1.7560      0.056710
     1.7565      0.048750
     1.7570      0.041810
     1.7575      0.036240
     1.7580      0.031370
     1.7585      0.027980
     1.7590      0.025320
     1.7595      0.022220
     1.7600      0.020030
     1.7605      0.018250
     1.7610      0.016380
     1.7615      0.014700
     1.7620      0.013450
     1.7625      0.012440
     1.7630      0.011500
     1.7635      0.010880
     1.7640      0.010550
     1.7645      0.010030
     1.7650      0.009750
     1.7655      0.009290
     1.7660      0.008510
     1.7665      0.008060
     1.7670      0.008490
     1.7675      0.007870
     1.7680      0.007320
     1.7685      0.006880
     1.7690      0.006670
     1.7695      0.006990
     1.7700      0.006910
     1.7705      0.006040
     1.7710      0.005660
     1.7715      0.005490
     1.7720      0.005090
     1.7725      0.005390
     1.7730      0.005690
     1.7735      0.005280
     1.7740      0.004940
     1.7745      0.005230
     1.7750      0.005840
     1.7755      0.005370
     1.7760      0.004330
     1.7765      0.003870
     1.7770      0.004850
     1.7775      0.004520
     1.7780      0.004880
     1.7785      0.005040
     1.7790      0.004380
     1.7795      0.004510
     1.7800      0.004330
     1.7805      0.003580
     1.7810      0.003850
     1.7815      0.004330
     1.7820      0.004140
     1.7825      0.003840
     1.7830      0.003900
     1.7835      0.003870
     1.7840      0.003910
     1.7845      0.003350
     1.7850      0.003060
     1.7855      0.003370
     1.7860      0.003650
     1.7865      0.003130
     1.7870      0.003740
     1.7875      0.003410
     1.7880      0.003040
     1.7885      0.003720
     1.7890      0.003710
     1.7895      0.003730
     1.7900      0.003550
     1.7905      0.003120
     1.7910      0.003200
     1.7915      0.002770
     1.7920      0.002420
     1.7925      0.002890
     1.7930      0.002640
     1.7935      0.002800
     1.7940      0.002740
     1.7945      0.002740
     1.7950      0.003010
     1.7955      0.002600
     1.7960      0.002920
     1.7965      0.003180
     1.7970      0.002960
     1.7975      0.002490
     1.7980      0.002690
     1.7985      0.002360
     1.7990      0.002120
     1.7995      0.002810
     1.8000      0.003380
     1.8005      0.003170
     1.8010      0.002740
     1.8015      0.002860
     1.8020      0.002730
     1.8025      0.002150
     1.8030      0.002620
     1.8035      0.002170
     1.8040      0.001870
     1.8045      0.002210
     1.8050      0.003120
     1.8055      0.002550
     1.8060      0.002450
     1.8065      0.002810
     1.8070      0.002740
     1.8075      0.002240
     1.8080      0.002120
     1.8085      0.002360
     1.8090      0.002490
     1.8095      0.002970
     1.8100      0.003410
     1.8105      0.002940
     1.8110      0.003070
     1.8115      0.003080
     1.8120      0.002730
     1.8125      0.002580
     1.8130      0.003270
     1.8135      0.002840
     1.8140      0.002290
     1.8145      0.002340
     1.8150      0.002440
     1.8155      0.002460
     1.8160      0.002290
     1.8165      0.002940
     1.8170      0.002750
     1.8175      0.002380
     1.8180      0.002170
     1.8185      0.002330
     1.8190      0.002520
     1.8195      0.002450
     1.8200      0.002550
     1.8205      0.002490
     1.8210      0.003020
     1.8215      0.002660
     1.8220      0.003120
     1.8225      0.003420
     1.8230      0.003120
     1.8235      0.002420
     1.8240      0.002410
     1.8245      0.002570
     1.8250      0.002810
     1.8255      0.002510
     1.8260      0.002080
     1.8265      0.002080
     1.8270      0.002570
     1.8275      0.002290
     1.8280      0.002250
     1.8285      0.002500
     1.8290      0.001900
     1.8295      0.001800
     1.8300      0.001750
     1.8305      0.002010
     1.8310      0.002190
     1.8315      0.001590
     1.8320      0.002040
     1.8325      0.002770
     1.8330      0.002770
     1.8335      0.003270
     1.8340      0.002710
     1.8345      0.002310
     1.8350      0.002840
     1.8355      0.002640
     1.8360      0.002380
     1.8365      0.002030
     1.8370      0.002410
     1.8375      0.002590
     1.8380      0.002600
     1.8385      0.002860
     1.8390      0.002610
     1.8395      0.001750
     1.8400      0.002220
     1.8405      0.001960
     1.8410      0.002090
     1.8415      0.002820
     1.8420      0.002370
     1.8425      0.001660
     1.8430      0.001540
     1.8435      0.001990
     1.8440      0.002190
     1.8445      0.002210
     1.8450      0.002510
     1.8455      0.002640
     1.8460      0.002490
     1.8465      0.002460
     1.8470      0.002170
     1.8475      0.002340
     1.8480      0.002910
     1.8485      0.002960
     1.8490      0.002350
     1.8495      0.002320
     1.8500      0.002090
     1.8505      0.001920
     1.8510      0.002120
     1.8515      0.001730
     1.8520      0.001900
     1.8525      0.001670
     1.8530      0.001720
     1.8535      0.001750
     1.8540      0.001940
     1.8545      0.001700
     1.8550      0.001290
     1.8555      0.001310
     1.8560      0.001490
     1.8565      0.001160
     1.8570      0.001100
     1.8575      0.001010
     1.8580      0.000750
     1.8585      0.001260
     1.8590      0.001580
     1.8595      0.001480
     1.8600      0.001070
     1.8605      0.001150
     1.8610      0.001270
     1.8615      0.001690
     1.8620      0.001240
     1.8625      0.001030
     1.8630      0.000910
     1.8635      0.001430
     1.8640      0.001400
     1.8645      0.001340
     1.8650      0.000850
     1.8655      0.000880
     1.8660      0.001050
     1.8665      0.001300
     1.8670      0.001520
     1.8675      0.001070
     1.8680      0.001000
     1.8685      0.001280
     1.8690      0.001340
     1.8695      0.000970
     1.8700      0.000460
     1.8705      0.001120
     1.8710      0.001190
     1.8715      0.001170
     1.8720      0.001150
     1.8725      0.001560
     1.8730      0.001320
     1.8735      0.001160
     1.8740      0.001180
     1.8745      0.001180
     1.8750      0.001460
     1.8755      0.001390
     1.8760      0.001770
     1.8765      0.001650
     1.8770      0.001400
     1.8775      0.001160
     1.8780      0.001270
     1.8785      0.001450
     1.8790      0.001630
     1.8795      0.001470
     1.8800      0.001190
     1.8805      0.001460
     1.8810      0.001410
     1.8815      0.001300
     1.8820      0.000980
     1.8825      0.000850
     1.8830      0.001180
     1.8835      0.001500
     1.8840      0.001410
     1.8845      0.001210
     1.8850      0.001210
     1.8855      0.001340
     1.8860      0.000900
     1.8865      0.001030
     1.8870      0.001470
     1.8875      0.001430
     1.8880      0.000940
     1.8885      0.001260
     1.8890      0.001110
     1.8895      0.001260
     1.8900      0.001480
     1.8905      0.001260
     1.8910      0.000990
     1.8915      0.001560
     1.8920      0.001500
     1.8925      0.001220
     1.8930      0.001580
     1.8935      0.001930
     1.8940      0.001530
     1.8945      0.001220
     1.8950      0.001310
     1.8955      0.001320
     1.8960      0.001660
     1.8965      0.001900
     1.8970      0.001520
     1.8975      0.001280
     1.8980      0.001100
     1.8985      0.001320
     1.8990      0.001240
     1.8995      0.001700
     1.9000      0.001600
     1.9005      0.001400
     1.9010      0.001400
     1.9015      0.001380
     1.9020      0.001730
     1.9025      0.001090
     1.9030      0.001320
     1.9035      0.001220
     1.9040      0.000720
     1.9045      0.001570
     1.9050      0.002320
     1.9055      0.002110
     1.9060      0.001430
     1.9065      0.001590
     1.9070      0.001780
     1.9075      0.001540
     1.9080      0.001280
     1.9085      0.001250
     1.9090      0.001510
     1.9095      0.001100
     1.9100      0.001120
     1.9105      0.001280
     1.9110      0.001380
     1.9115      0.000930
     1.9120      0.000770
     1.9125      0.001250
     1.9130      0.001660
     1.9135      0.001350
     1.9140      0.001470
     1.9145      0.002020
     1.9150      0.001180
     1.9155      0.000560
     1.9160      0.000910
     1.9165      0.001180
     1.9170      0.001240
     1.9175      0.001600
     1.9180      0.001330
     1.9185      0.001160
     1.9190      0.001330
     1.9195      0.001470
     1.9200      0.001350
     1.9205      0.001180
     1.9210      0.001390
     1.9215      0.001600
     1.9220      0.001380
     1.9225      0.001510
     1.9230      0.001210
     1.9235      0.001010
     1.9240      0.001060
     1.9245      0.001560
     1.9250      0.001870
     1.9255      0.001310
     1.9260      0.001450
     1.9265      0.001740
     1.9270      0.001500
     1.9275      0.001490
     1.9280      0.002010
     1.9285      0.002190
     1.9290      0.001630
     1.9295      0.001100
     1.9300      0.001250
     1.9305      0.001350
     1.9310      0.001300
     1.9315      0.001600
     1.9320      0.001530
     1.9325      0.001160
     1.9330      0.001180
     1.9335      0.001660
     1.9340      0.001530
     1.9345      0.001420
     1.9350      0.001300
     1.9355      0.001420
     1.9360      0.001210
     1.9365      0.001230
     1.9370      0.001100
     1.9375      0.001000
     1.9380      0.001200
     1.9385      0.000750
     1.9390      0.000700
     1.9395      0.000650
     1.9400      0.000470
     1.9405      0.000860
     1.9410      0.001260
     1.9415      0.001480
     1.9420      0.001700
     1.9425      0.001440
     1.9430      0.001580
     1.9435      0.001180
     1.9440      0.000540
     1.9445      0.000890
     1.9450      0.001260
     1.9455      0.001440
     1.9460      0.001360
     1.9465      0.001220
     1.9470      0.001500
     1.9475      0.001420
     1.9480      0.001000
     1.9485      0.000960
     1.9490      0.000970
     1.9495      0.001190
     1.9500      0.001400
     1.9505      0.001320
     1.9510      0.001270
     1.9515      0.000790
     1.9520      0.000490
     1.9525      0.000330
     1.9530      0.000920
     1.9535      0.001120
     1.9540      0.000280
     1.9545      0.000330
     1.9550      0.000650
     1.9555      0.000680
     1.9560      0.000200
     1.9565      0.000500
     1.9570      0.000970
     1.9575      0.001100
     1.9580      0.000590
     1.9585      0.000430
     1.9590      0.000610
     1.9595      0.000870
     1.9600      0.000950
     1.9605      0.000650
     1.9610      0.000390
     1.9615      0.000680
     1.9620      0.000690
     1.9625      0.000590
     1.9630      0.000360
     1.9635      0.000560
     1.9640      0.000770
     1.9645      0.000650
     1.9650      0.000140
     1.9655      0.000010
     1.9660      0.000200
     1.9665      0.000210
     1.9670      0.000070
     1.9675      0.000010
     1.9680      0.000080
     1.9685      0.000430
     1.9690      0.000190
     1.9695      0.000480
     1.9700      0.000530
     1.9705      0.000480
     1.9710      0.000110
     1.9715      0.000000
     1.9720      0.000130
     1.9725      0.000260
     1.9730      0.000520
     1.9735      0.000440
     1.9740      0.000040
     1.9745      0.000170
     1.9750      0.000020
     1.9755      0.000570
     1.9760      0.000560
     1.9765      0.000350
     1.9770      0.000400
     1.9775      0.000070
     1.9780      0.000000
     1.9785      0.000000
     1.9790      0.000000
     1.9795      0.000000
     1.9800      0.000000
     1.9805      0.000220
     1.9810      0.000610
     1.9815      0.000240
     1.9820      0.000440
     1.9825      0.000670
     1.9830      0.000020
     1.9835      0.000000
     1.9840      0.000000
     1.9845      0.000370
     1.9850      0.000450
     1.9855      0.000120
     1.9860      0.000200
     1.9865      0.000250
     1.9870      0.000170
     1.9875      0.000020
     1.9880      0.000060
     1.9885      0.000410
     1.9890      0.000380
     1.9895      0.000500
     1.9900      0.000400
     1.9905      0.000070
     1.9910      0.000000
     1.9915      0.000080
     1.9920      0.000340
     1.9925      0.000190
     1.9930      0.000050
     1.9935      0.000060
     1.9940      0.000160
     1.9945      0.000360
     1.9950      0.000090
     1.9955      0.000000
     1.9960      0.000000
     1.9965      0.000000
     1.9970      0.000000
     1.9975      0.000000
     1.9980      0.000160
     1.9985      0.000170
     1.9990      0.000310
     1.9995      0.000310
     2.0000      0.000060
     2.0005      0.000000
     2.0010      0.000000
     2.0015      0.000000
     2.0020      0.000260
     2.0025      0.000710
     2.0030      0.000400
     2.0035      0.000190
     2.0040      0.000030
     2.0045      0.000000
     2.0050      0.000000
     2.0055      0.000000
     2.0060      0.000000
     2.0065      0.000220
     2.0070      0.000670
     2.0075      0.000820
     2.0080      0.000640
     2.0085      0.000140
     2.0090      0.000000
     2.0095      0.000040
     2.0100      0.000040
     2.0105      0.000080
     2.0110      0.000030
     2.0115      0.000000
     2.0120      0.000000
     2.0125      0.000000
     2.0130      0.000000
     2.0135      0.000260
     2.0140      0.000170
     2.0145      0.000010
     2.0150      0.000080
     2.0155      0.000400
     2.0160      0.000170
     2.0165      0.000000
     2.0170      0.000040
     2.0175      0.000020
     2.0180      0.000420
     2.0185      0.000750
     2.0190      0.000260
     2.0195      0.000210
     2.0200      0.000040
     2.0205      0.000020
     2.0210      0.000380
     2.0215      0.000220
     2.0220      0.000010
     2.0225      0.000000
     2.0230      0.000000
     2.0235      0.000010
     2.0240      0.000420
     2.0245      0.000330
     2.0250      0.000000
     2.0255      0.000000
     2.0260      0.000140
     2.0265      0.000040
     2.0270      0.000000
     2.0275      0.000000
     2.0280      0.000020
     2.0285      0.000420
     2.0290      0.000330
     2.0295      0.000150
     2.0300      0.000070
     2.0305      0.000000
     2.0310      0.000000
     2.0315      0.000000
     2.0320      0.000010
     2.0325      0.000110
     2.0330      0.000040
     2.0335      0.000000
     2.0340      0.000170
     2.0345      0.000410
     2.0350      0.000330
     2.0355      0.000080
     2.0360      0.000240
     2.0365      0.000260
     2.0370      0.000000
     2.0375      0.000130
     2.0380      0.000060
     2.0385      0.000000
     2.0390      0.000000
     2.0395      0.000000
     2.0400      0.000000
     2.0405      0.000000
     2.0410      0.000000
     2.0415      0.000000
     2.0420      0.000000
     2.0425      0.000060
     2.0430      0.000200
     2.0435      0.000240
     2.0440      0.000390
     2.0445      0.000400
     2.0450      0.000240
     2.0455      0.000090
     2.0460      0.000000
     2.0465      0.000130
     2.0470      0.000380
     2.0475      0.000400
     2.0480      0.000640
     2.0485      0.000630
     2.0490      0.000220
     2.0495      0.000200
     2.0500      0.000160
     2.0505      0.000010
     2.0510      0.000020
     2.0515      0.000020
     2.0520      0.000000
     2.0525      0.000000
     2.0530      0.000000
     2.0535      0.000000
     2.0540      0.000000
     2.0545      0.000000
     2.0550      0.000010
     2.0555      0.000000
     2.0560      0.000160
     2.0565      0.000340
     2.0570      0.000120
     2.0575      0.000190
     2.0580      0.000080
     2.0585      0.000000
     2.0590      0.000060
     2.0595      0.000470
     2.0600      0.000590
     2.0605      0.000140
     2.0610      0.000000
     2.0615      0.000000
     2.0620      0.000050
     2.0625      0.000050
     2.0630      0.000000
     2.0635      0.000000
     2.0640      0.000400
     2.0645      0.000520
     2.0650      0.000170
     2.0655      0.000010
     2.0660      0.000030
     2.0665      0.000380
     2.0670      0.000280
     2.0675      0.000150
     2.0680      0.000010
     2.0685      0.000000
     2.0690      0.000060
     2.0695      0.000130
     2.0700      0.000020
     2.0705      0.000000
     2.0710      0.000000
     2.0715      0.000000
     2.0720      0.000000
     2.0725      0.000000
     2.0730      0.000000
     2.0735      0.000000
     2.0740      0.000020
     2.0745      0.000140
     2.0750      0.000140
     2.0755      0.000000
     2.0760      0.000150
     2.0765      0.000200
     2.0770      0.000000
     2.0775      0.000000
     2.0780      0.000000
     2.0785      0.000000
     2.0790      0.000000
     2.0795      0.000000
     2.0800      0.000000
     2.0805      0.000130
     2.0810      0.000670
     2.0815      0.000290
     2.0820      0.000000
     2.0825      0.000000
     2.0830      0.000000
     2.0835      0.000000
     2.0840      0.000000
     2.0845      0.000100
     2.0850      0.000030
     2.0855      0.000070
     2.0860      0.000000
     2.0865      0.000000
     2.0870      0.000200
     2.0875      0.000220
     2.0880      0.000010
     2.0885      0.000000
     2.0890      0.000180
     2.0895      0.000510
     2.0900      0.000260
     2.0905      0.000230
     2.0910      0.000110
     2.0915      0.000000
     2.0920      0.000000
     2.0925      0.000000
     2.0930      0.000020
     2.0935      0.000000
     2.0940      0.000000
     2.0945      0.000060
     2.0950      0.000130
     2.0955      0.000030
     2.0960      0.000230
     2.0965      0.000330
     2.0970      0.000200
     2.0975      0.000120
     2.0980      0.000010
     2.0985      0.000070
     2.0990      0.000030
     2.0995      0.000090
     2.1000      0.000140
     2.1005      0.000030
     2.1010      0.000050
     2.1015      0.000020
     2.1020      0.000000
     2.1025      0.000000
     2.1030      0.000060
     2.1035      0.000100
     2.1040      0.000020
     2.1045      0.000000
     2.1050      0.000000
     2.1055      0.000070
     2.1060      0.000330
     2.1065      0.000150
     2.1070      0.000000
     2.1075      0.000170
     2.1080      0.000490
     2.1085      0.000360
     2.1090      0.000100
     2.1095      0.000000
     2.1100      0.000000
     2.1105      0.000000
     2.1110      0.000100
     2.1115      0.000000
     2.1120      0.000130
     2.1125      0.000170
     2.1130      0.000010
     2.1135      0.000000
     2.1140      0.000000
     2.1145      0.000000
     2.1150      0.000000
     2.1155      0.000000
     2.1160      0.000000
     2.1165      0.000000
     2.1170      0.000000
     2.1175      0.000040
     2.1180      0.000000
     2.1185      0.000010
     2.1190      0.000280
     2.1195      0.000280
     2.1200      0.000020
     2.1205      0.000000
     2.1210      0.000000
     2.1215      0.000000
     2.1220      0.000020
     2.1225      0.000050
     2.1230      0.000010
     2.1235      0.000000
     2.1240      0.000000
     2.1245      0.000000
     2.1250      0.000000
     2.1255      0.000000
     2.1260      0.000030
     2.1265      0.000260
     2.1270      0.000100
     2.1275      0.000000
     2.1280      0.000000
     2.1285      0.000000
     2.1290      0.000000
     2.1295      0.000000
     2.1300      0.000000
     2.1305      0.000000
     2.1310      0.000000
     2.1315      0.000000
     2.1320      0.000000
     2.1325      0.000000
     2.1330      0.000000
     2.1335      0.000330
     2.1340      0.000110
     2.1345      0.000000
     2.1350      0.000000
     2.1355      0.000000
     2.1360      0.000000
     2.1365      0.000000
     2.1370      0.000000
     2.1375      0.000000
     2.1380      0.000000
     2.1385      0.000000
     2.1390      0.000000
     2.1395      0.000000
     2.1400      0.000000
     2.1405      0.000000
     2.1410      0.000000
     2.1415      0.000000
     2.1420      0.000000
     2.1425      0.000000
     2.1430      0.000000
     2.1435      0.000000
     2.1440      0.000000
     2.1445      0.000000
     2.1450      0.000000
     2.1455      0.000000
     2.1460      0.000030
     2.1465      0.000100
     2.1470      0.000080
     2.1475      0.000260
     2.1480      0.000110
     2.1485      0.000000
     2.1490      0.000000
     2.1495      0.000000
     2.1500      0.000000
     2.1505      0.000010
     2.1510      0.000050
     2.1515      0.000080
     2.1520      0.000070
     2.1525      0.000110
     2.1530      0.000130
     2.1535      0.000000
     2.1540      0.000000
     2.1545      0.000000
     2.1550      0.000020
     2.1555      0.000130
     2.1560      0.000090
     2.1565      0.000000
     2.1570      0.000110
     2.1575      0.000380
     2.1580      0.000000
     2.1585      0.000000
     2.1590      0.000000
     2.1595      0.000000
     2.1600      0.000020
     2.1605      0.000020
     2.1610      0.000000
     2.1615      0.000000
     2.1620      0.000000
     2.1625      0.000280
     2.1630      0.000550
     2.1635      0.000320
     2.1640      0.000000
     2.1645      0.000000
     2.1650      0.000000
     2.1655      0.000000
     2.1660      0.000100
     2.1665      0.000370
     2.1670      0.000450
     2.1675      0.000160
     2.1680      0.000000
     2.1685      0.000000
     2.1690      0.000120
     2.1695      0.000210
     2.1700      0.000050
     2.1705      0.000000
     2.1710      0.000000
     2.1715      0.000050
     2.1720      0.000350
     2.1725      0.000190
     2.1730      0.000000
     2.1735      0.000010
     2.1740      0.000020
     2.1745      0.000020
     2.1750      0.000170
     2.1755      0.000130
     2.1760      0.000020
     2.1765      0.000000
     2.1770      0.000000
     2.1775      0.000000
     2.1780      0.000000
     2.1785      0.000000
     2.1790      0.000000
     2.1795      0.000000
     2.1800      0.000000
     2.1805      0.000000
     2.1810      0.000000
     2.1815      0.000000
     2.1820      0.000000
     2.1825      0.000110
     2.1830      0.000000
     2.1835      0.000000
     2.1840      0.000100
     2.1845      0.000260
     2.1850      0.000020
     2.1855      0.000000
     2.1860      0.000000
     2.1865      0.000000
     2.1870      0.000000
     2.1875      0.000080
     2.1880      0.000140
     2.1885      0.000100
     2.1890      0.000010
     2.1895      0.000000
     2.1900      0.000000
     2.1905      0.000000
     2.1910      0.000000
     2.1915      0.000000
     2.1920      0.000000
     2.1925      0.000000
     2.1930      0.000000
     2.1935      0.000090
     2.1940      0.000010
     2.1945      0.000000
     2.1950      0.000000
     2.1955      0.000010
     2.1960      0.000040
     2.1965      0.000000
     2.1970      0.000010
     2.1975      0.000210
     2.1980      0.000390
     2.1985      0.000130
     2.1990      0.000000
     2.1995      0.000050
     2.2000      0.000180
     2.2005      0.000090
     2.2010      0.000060
     2.2015      0.000000
     2.2020      0.000000
     2.2025      0.000030
     2.2030      0.000030
     2.2035      0.000080
     2.2040      0.000150
     2.2045      0.000150
     2.2050      0.000360
     2.2055      0.000350
     2.2060      0.000290
     2.2065      0.000450
     2.2070      0.000530
     2.2075      0.000280
     2.2080      0.000030
     2.2085      0.000000
     2.2090      0.000000
     2.2095      0.000000
     2.2100      0.000010
     2.2105      0.000110
     2.2110      0.000310
     2.2115      0.000140
     2.2120      0.000000
     2.2125      0.000000
     2.2130      0.000000
     2.2135      0.000000
     2.2140      0.000000
     2.2145      0.000000
     2.2150      0.000100
     2.2155      0.000050
     2.2160      0.000030
     2.2165      0.000060
     2.2170      0.000010
     2.2175      0.000000
     2.2180      0.000000
     2.2185      0.000100
     2.2190      0.000210
     2.2195      0.000410
     2.2200      0.000240
     2.2205      0.000000
     2.2210      0.000050
     2.2215      0.000100
     2.2220      0.000020
     2.2225      0.000080
     2.2230      0.000120
     2.2235      0.000040
     2.2240      0.000070
     2.2245      0.000100
     2.2250      0.000170
     2.2255      0.000320
     2.2260      0.000270
     2.2265      0.000250
     2.2270      0.000210
     2.2275      0.000010
     2.2280      0.000000
     2.2285      0.000000
     2.2290      0.000000
     2.2295      0.000000
     2.2300      0.000010
     2.2305      0.000050
     2.2310      0.000000
     2.2315      0.000030
     2.2320      0.000190
     2.2325      0.000230
     2.2330      0.000040
     2.2335      0.000000
     2.2340      0.000000
     2.2345      0.000000
     2.2350      0.000000
     2.2355      0.000000
     2.2360      0.000000
     2.2365      0.000020
     2.2370      0.000170
     2.2375      0.000250
     2.2380      0.000240
     2.2385      0.000380
     2.2390      0.000310
     2.2395      0.000030
     2.2400      0.000000
     2.2405      0.000000
     2.2410      0.000090
     2.2415      0.000340
     2.2420      0.000120
     2.2425      0.000000
     2.2430      0.000000
     2.2435      0.000020
     2.2440      0.000000
     2.2445      0.000000
     2.2450      0.000000
     2.2455      0.000000
     2.2460      0.000000
     2.2465      0.000000
     2.2470      0.000000
     2.2475      0.000000
     2.2480      0.000000
     2.2485      0.000070
     2.2490      0.000080
     2.2495      0.000000
     2.2500      0.000000
     2.2505      0.000000
     2.2510      0.000000
     2.2515      0.000070
     2.2520      0.000050
     2.2525      0.000000
     2.2530      0.000000
     2.2535      0.000000
     2.2540      0.000000
     2.2545      0.000000
     2.2550      0.000060
     2.2555      0.000080
     2.2560      0.000200
     2.2565      0.000050
     2.2570      0.000000
     2.2575      0.000000
     2.2580      0.000000
     2.2585      0.000000
     2.2590      0.000240
     2.2595      0.000180
     2.2600      0.000130
     2.2605      0.000210
     2.2610      0.000080
     2.2615      0.000020
     2.2620      0.000000
     2.2625      0.000000
     2.2630      0.000180
     2.2635      0.000060
     2.2640      0.000000
     2.2645      0.000010
     2.2650      0.000250
     2.2655      0.000130
     2.2660      0.000000
     2.2665      0.000000
     2.2670      0.000000
     2.2675      0.000000
     2.2680      0.000000
     2.2685      0.000000
     2.2690      0.000000
     2.2695      0.000000
     2.2700      0.000030
     2.2705      0.000250
     2.2710      0.000430
     2.2715      0.000410
     2.2720      0.000390
     2.2725      0.000480
     2.2730      0.000610
     2.2735      0.000630
     2.2740      0.000560
     2.2745      0.000330
     2.2750      0.000170
     2.2755      0.000120
     2.2760      0.000000
     2.2765      0.000000
     2.2770      0.000050
     2.2775      0.000280
     2.2780      0.000230
     2.2785      0.000200
     2.2790      0.000330
     2.2795      0.000290
     2.2800      0.000200
     2.2805      0.000160
     2.2810      0.000100
     2.2815      0.000160
     2.2820      0.000170
     2.2825      0.000100
     2.2830      0.000020
     2.2835      0.000000
     2.2840      0.000010
     2.2845      0.000120
     2.2850      0.000220
     2.2855      0.000470
     2.2860      0.000630
     2.2865      0.000520
     2.2870      0.000400
     2.2875      0.000090
     2.2880      0.000000
     2.2885      0.000000
     2.2890      0.000040
     2.2895      0.000310
     2.2900      0.000050
     2.2905      0.000000
     2.2910      0.000170
     2.2915      0.000190
     2.2920      0.000010
     2.2925      0.000000
     2.2930      0.000000
     2.2935      0.000000
     2.2940      0.000050
     2.2945      0.000160
     2.2950      0.000280
     2.2955      0.000070
     2.2960      0.000000
     2.2965      0.000000
     2.2970      0.000000
     2.2975      0.000160
     2.2980      0.000060
     2.2985      0.000010
     2.2990      0.000000
     2.2995      0.000000
     2.3000      0.000000
     2.3005      0.000000
     2.3010      0.000000
     2.3015      0.000080
     2.3020      0.000180
     2.3025      0.000130
     2.3030      0.000050
     2.3035      0.000180
     2.3040      0.000350
     2.3045      0.000300
     2.3050      0.000120
     2.3055      0.000010
     2.3060      0.000000
     2.3065      0.000030
     2.3070      0.000100
     2.3075      0.000080
     2.3080      0.000000
     2.3085      0.000000
     2.3090      0.000000
     2.3095      0.000000
     2.3100      0.000000
     2.3105      0.000000
     2.3110      0.000030
     2.3115      0.000050
     2.3120      0.000000
     2.3125      0.000000
     2.3130      0.000000
     2.3135      0.000000
     2.3140      0.000000
     2.3145      0.000000
     2.3150      0.000000
     2.3155      0.000000
     2.3160      0.000000
     2.3165      0.000000
     2.3170      0.000000
     2.3175      0.000000
     2.3180      0.000000
     2.3185      0.000000
     2.3190      0.000090
     2.3195      0.000260
     2.3200      0.000250
     2.3205      0.000090
     2.3210      0.000010
     2.3215      0.000000
     2.3220      0.000030
     2.3225      0.000040
     2.3230      0.000000
     2.3235      0.000000
     2.3240      0.000000
     2.3245      0.000000
     2.3250      0.000000
     2.3255      0.000030
     2.3260      0.000240
     2.3265      0.000480
     2.3270      0.000050
     2.3275      0.000000
     2.3280      0.000310
     2.3285      0.000260
     2.3290      0.000170
     2.3295      0.000240
     2.3300      0.000240
     2.3305      0.000250
     2.3310      0.000340
     2.3315      0.000340
     2.3320      0.000210
     2.3325      0.000180
     2.3330      0.000320
     2.3335      0.000390
     2.3340      0.000220
     2.3345      0.000010
     2.3350      0.000000
     2.3355      0.000000
     2.3360      0.000000
     2.3365      0.000000
     2.3370      0.000000
     2.3375      0.000030
     2.3380      0.000310
     2.3385      0.000340
     2.3390      0.000150
     2.3395      0.000300
     2.3400      0.000540
     2.3405      0.000320
     2.3410      0.000070
     2.3415      0.000000
     2.3420      0.000000
     2.3425      0.000000
     2.3430      0.000000
     2.3435      0.000000
     2.3440      0.000000
     2.3445      0.000030
     2.3450      0.000210
     2.3455      0.000470
     2.3460      0.000320
     2.3465      0.000030
     2.3470      0.000000
     2.3475      0.000000
     2.3480      0.000030
     2.3485      0.000010
     2.3490      0.000000
     2.3495      0.000000
     2.3500      0.000000
     2.3505      0.000000
     2.3510      0.000000
     2.3515      0.000000
     2.3520      0.000000
     2.3525      0.000000
     2.3530      0.000060
     2.3535      0.000240
     2.3540      0.000240
     2.3545      0.000210
     2.3550      0.000150
     2.3555      0.000010
     2.3560      0.000020
     2.3565      0.000200
     2.3570      0.000310
     2.3575      0.000310
     2.3580      0.000250
     2.3585      0.000210
     2.3590      0.000100
     2.3595      0.000000
     2.3600      0.000000
     2.3605      0.000000
     2.3610      0.000000
     2.3615      0.000020
     2.3620      0.000170
     2.3625      0.000010
     2.3630      0.000000
     2.3635      0.000000
     2.3640      0.000000
     2.3645      0.000050
     2.3650      0.000030
     2.3655      0.000000
     2.3660      0.000100
     2.3665      0.000300
     2.3670      0.000300
     2.3675      0.000020
     2.3680      0.000000
     2.3685      0.000000
     2.3690      0.000000
     2.3695      0.000000
     2.3700      0.000000
     2.3705      0.000240
     2.3710      0.000270
     2.3715      0.000100
     2.3720      0.000000
     2.3725      0.000000
     2.3730      0.000000
     2.3735      0.000000
     2.3740      0.000030
     2.3745      0.000080
     2.3750      0.000000
     2.3755      0.000000
     2.3760      0.000000
     2.3765      0.000000
     2.3770      0.000090
     2.3775      0.000650
     2.3780      0.000800
     2.3785      0.000550
     2.3790      0.000570
     2.3795      0.000850
     2.3800      0.000780
     2.3805      0.000590
     2.3810      0.000760
     2.3815      0.000680
     2.3820      0.000190
     2.3825      0.000030
     2.3830      0.000130
     2.3835      0.000340
     2.3840      0.000580
     2.3845      0.000630
     2.3850      0.000360
     2.3855      0.000020
     2.3860      0.000030
     2.3865      0.000150
     2.3870      0.000120
     2.3875      0.000010
     2.3880      0.000000
     2.3885      0.000000
     2.3890      0.000000
     2.3895      0.000000
     2.3900      0.000000
     2.3905      0.000090
     2.3910      0.000260
     2.3915      0.000350
     2.3920      0.000440
     2.3925      0.000360
     2.3930      0.000030
     2.3935      0.000000
     2.3940      0.000000
     2.3945      0.000000
     2.3950      0.000000
     2.3955      0.000020
     2.3960      0.000080
     2.3965      0.000110
     2.3970      0.000000
     2.3975      0.000000
     2.3980      0.000060
     2.3985      0.000250
     2.3990      0.000210
     2.3995      0.000060
     2.4000      0.000000
     2.4005      0.000000
     2.4010      0.000000
     2.4015      0.000000
     2.4020      0.000000
     2.4025      0.000020
     2.4030      0.000240
     2.4035      0.000170
     2.4040      0.000040
     2.4045      0.000000
     2.4050      0.000000
     2.4055      0.000000
     2.4060      0.000000
     2.4065      0.000000
     2.4070      0.000000
     2.4075      0.000000
     2.4080      0.000080
     2.4085      0.000160
     2.4090      0.000170
     2.4095      0.000280
     2.4100      0.000490
     2.4105      0.000630
     2.4110      0.000530
     2.4115      0.000180
     2.4120      0.000000
     2.4125      0.000000
     2.4130      0.000000
     2.4135      0.000000
     2.4140      0.000000
     2.4145      0.000000
     2.4150      0.000030
     2.4155      0.000180
     2.4160      0.000400
     2.4165      0.000130
     2.4170      0.000010
     2.4175      0.000240
     2.4180      0.000220
     2.4185      0.000080
     2.4190      0.000000
     2.4195      0.000000
     2.4200      0.000000
     2.4205      0.000000
     2.4210      0.000000
     2.4215      0.000000
     2.4220      0.000000
     2.4225      0.000010
     2.4230      0.000070
     2.4235      0.000070
     2.4240      0.000020
     2.4245      0.000070
     2.4250      0.000100
     2.4255      0.000000
     2.4260      0.000000
     2.4265      0.000020
     2.4270      0.000010
     2.4275      0.000000
     2.4280      0.000000
     2.4285      0.000000
     2.4290      0.000020
     2.4295      0.000170
     2.4300      0.000020
     2.4305      0.000000
     2.4310      0.000000
     2.4315      0.000060
     2.4320      0.000120
     2.4325      0.000110
     2.4330      0.000020
     2.4335      0.000000
     2.4340      0.000060
     2.4345      0.000110
     2.4350      0.000040
     2.4355      0.000050
     2.4360      0.000190
     2.4365      0.000340
     2.4370      0.000350
     2.4375      0.000350
     2.4380      0.000350
     2.4385      0.000340
     2.4390      0.000310
     2.4395      0.000330
     2.4400      0.000420
     2.4405      0.000520
     2.4410      0.000590
     2.4415      0.000470
     2.4420      0.000070
     2.4425      0.000020
     2.4430      0.000200
     2.4435      0.000210
     2.4440      0.000070
     2.4445      0.000000
     2.4450      0.000010
     2.4455      0.000190
     2.4460      0.000270
     2.4465      0.000260
     2.4470      0.000190
     2.4475      0.000080
     2.4480      0.000000
     2.4485      0.000000
     2.4490      0.000000
     2.4495      0.000000
     2.4500      0.000000
     2.4505      0.000000
     2.4510      0.000000
     2.4515      0.000000
     2.4520      0.000000
     2.4525      0.000000
     2.4530      0.000080
     2.4535      0.000130
     2.4540      0.000060
     2.4545      0.000010
     2.4550      0.000000
     2.4555      0.000020
     2.4560      0.000110
     2.4565      0.000010
     2.4570      0.000010
     2.4575      0.000350
     2.4580      0.000550
     2.4585      0.000440
     2.4590      0.000180
     2.4595      0.000090
     2.4600      0.000010
     2.4605      0.000000
     2.4610      0.000200
     2.4615      0.000430
     2.4620      0.000470
     2.4625      0.000290
     2.4630      0.000140
     2.4635      0.000070
     2.4640      0.000020
     2.4645      0.000000
     2.4650      0.000000
     2.4655      0.000010
     2.4660      0.000100
     2.4665      0.000440
     2.4670      0.000480
     2.4675      0.000130
     2.4680      0.000070
     2.4685      0.000260
     2.4690      0.000320
     2.4695      0.000000
     2.4700      0.000000
     2.4705      0.000010
     2.4710      0.000210
     2.4715      0.000140
     2.4720      0.000000
     2.4725      0.000000
     2.4730      0.000000
     2.4735      0.000000
     2.4740      0.000000
     2.4745      0.000000
     2.4750      0.000030
     2.4755      0.000050
     2.4760      0.000000
     2.4765      0.000000
     2.4770      0.000000
     2.4775      0.000130
     2.4780      0.000220
     2.4785      0.000150
     2.4790      0.000000
     2.4795      0.000000
     2.4800      0.000040
     2.4805      0.000450
     2.4810      0.000470
     2.4815      0.000220
     2.4820      0.000010
     2.4825      0.000050
     2.4830      0.000230
     2.4835      0.000120
     2.4840      0.000090
     2.4845      0.000210
     2.4850      0.000330
     2.4855      0.000310
     2.4860      0.000220
     2.4865      0.000110
     2.4870      0.000030
     2.4875      0.000000
     2.4880      0.000100
     2.4885      0.000310
     2.4890      0.000440
     2.4895      0.000130
     2.4900      0.000130
     2.4905      0.000270
     2.4910      0.000340
     2.4915      0.000360
     2.4920      0.000560
     2.4925      0.000660
     2.4930      0.000360
     2.4935      0.000110
     2.4940      0.000000
     2.4945      0.000050
     2.4950      0.000200
     2.4955      0.000190
     2.4960      0.000060
     2.4965      0.000010
     2.4970      0.000000
     2.4975      0.000050
     2.4980      0.000250
     2.4985      0.000650
     2.4990      0.000520
     2.4995      0.000200
     2.5000      0.000000
     2.5005      0.000000
     2.5010      0.000000
     2.5015      0.000000
     2.5020      0.000000
     2.5025      0.000000
     2.5030      0.000040
     2.5035      0.000140
     2.5040      0.000180
     2.5045      0.000030
     2.5050      0.000000
     2.5055      0.000000
     2.5060      0.000000
     2.5065      0.000000
     2.5070      0.000000
     2.5075      0.000010
     2.5080      0.000280
     2.5085      0.000430
     2.5090      0.000290
     2.5095      0.000000
     2.5100      0.000000
     2.5105      0.000000
     2.5110      0.000000
     2.5115      0.000000
     2.5120      0.000000
     2.5125      0.000000
     2.5130      0.000000
     2.5135      0.000080
     2.5140      0.000160
     2.5145      0.000140
     2.5150      0.000000
     2.5155      0.000000
     2.5160      0.000100
     2.5165      0.000060
     2.5170      0.000000
     2.5175      0.000000
     2.5180      0.000000
     2.5185      0.000000
     2.5190      0.000000
     2.5195      0.000000
     2.5200      0.000000
     2.5205      0.000010
     2.5210      0.000060
     2.5215      0.000490
     2.5220      0.000470
     2.5225      0.000210
     2.5230      0.000000
     2.5235      0.000000
     2.5240      0.000000
     2.5245      0.000000
     2.5250      0.000000
     2.5255      0.000000
     2.5260      0.000000
     2.5265      0.000000
     2.5270      0.000000
     2.5275      0.000070
     2.5280      0.000120
     2.5285      0.000070
     2.5290      0.000010
     2.5295      0.000160
     2.5300      0.000190
     2.5305      0.000180
     2.5310      0.000210
     2.5315      0.000280
     2.5320      0.000090
     2.5325      0.000200
     2.5330      0.000440
     2.5335      0.000610
     2.5340      0.000520
     2.5345      0.000440
     2.5350      0.000230
     2.5355      0.000060
     2.5360      0.000020
     2.5365      0.000080
     2.5370      0.000010
     2.5375      0.000000
     2.5380      0.000000
     2.5385      0.000000
     2.5390      0.000010
     2.5395      0.000000
     2.5400      0.000000
     2.5405      0.000000
     2.5410      0.000000
     2.5415      0.000000
     2.5420      0.000000
     2.5425      0.000000
     2.5430      0.000000
     2.5435      0.000000
     2.5440      0.000000
     2.5445      0.000000
     2.5450      0.000060
     2.5455      0.000090
     2.5460      0.000070
     2.5465      0.000000
     2.5470      0.000000
     2.5475      0.000000
     2.5480      0.000000
     2.5485      0.000000
     2.5490      0.000000
     2.5495      0.000000
     2.5500      0.000010
     2.5505      0.000010
     2.5510      0.000040
     2.5515      0.000150
     2.5520      0.000340
     2.5525      0.000420
     2.5530      0.000330
     2.5535      0.000150
     2.5540      0.000000
     2.5545      0.000000
     2.5550      0.000140
     2.5555      0.000360
     2.5560      0.000570
     2.5565      0.000600
     2.5570      0.000250
     2.5575      0.000180
     2.5580      0.000380
     2.5585      0.000660
     2.5590      0.000660
     2.5595      0.000350
     2.5600      0.000220
     2.5605      0.000270
     2.5610      0.000400
     2.5615      0.000390
     2.5620      0.000340
     2.5625      0.000330
     2.5630      0.000290
     2.5635      0.000200
     2.5640      0.000160
     2.5645      0.000140
     2.5650      0.000110
     2.5655      0.000080
     2.5660      0.000060
     2.5665      0.000010
     2.5670      0.000000
     2.5675      0.000050
     2.5680      0.000190
     2.5685      0.000460
     2.5690      0.000630
     2.5695      0.000510
     2.5700      0.000340
     2.5705      0.000270
     2.5710      0.000270
     2.5715      0.000080
     2.5720      0.000000
     2.5725      0.000020
     2.5730      0.000090
     2.5735      0.000020
     2.5740      0.000000
     2.5745      0.000000
     2.5750      0.000030
     2.5755      0.000160
     2.5760      0.000350
     2.5765      0.000440
     2.5770      0.000330
     2.5775      0.000020
     2.5780      0.000000
     2.5785      0.000000
     2.5790      0.000000
     2.5795      0.000000
     2.5800      0.000000
     2.5805      0.000000
     2.5810      0.000000
     2.5815      0.000000
     2.5820      0.000000
     2.5825      0.000020
     2.5830      0.000170
     2.5835      0.000280
     2.5840      0.000370
     2.5845      0.000560
     2.5850      0.000370
     2.5855      0.000180
     2.5860      0.000160
     2.5865      0.000330
     2.5870      0.000060
     2.5875      0.000000
     2.5880      0.000000
     2.5885      0.000000
     2.5890      0.000000
     2.5895      0.000080
     2.5900      0.000070
     2.5905      0.000090
     2.5910      0.000270
     2.5915      0.000560
     2.5920      0.000380
     2.5925      0.000130
     2.5930      0.000000
     2.5935      0.000000
     2.5940      0.000000
     2.5945      0.000000
     2.5950      0.000000
     2.5955      0.000000
     2.5960      0.000030
     2.5965      0.000200
     2.5970      0.000320
     2.5975      0.000250
     2.5980      0.000120
     2.5985      0.000040
     2.5990      0.000000
     2.5995      0.000000
     2.6000      0.000000
     2.6005      0.000040
     2.6010      0.000050
     2.6015      0.000020
     2.6020      0.000000
     2.6025      0.000000
     2.6030      0.000000
     2.6035      0.000000
     2.6040      0.000000
     2.6045      0.000000
     2.6050      0.000000
     2.6055      0.000010
     2.6060      0.000040
     2.6065      0.000240
     2.6070      0.000230
     2.6075      0.000120
     2.6080      0.000000
     2.6085      0.000000
     2.6090      0.000000
     2.6095      0.000000
     2.6100      0.000040
     2.6105      0.000200
     2.6110      0.000150
     2.6115      0.000060
     2.6120      0.000000
     2.6125      0.000000
     2.6130      0.000000
     2.6135      0.000000
     2.6140      0.000000
     2.6145      0.000000
     2.6150      0.000000
     2.6155      0.000190
     2.6160      0.000510
     2.6165      0.000880
     2.6170      0.000900
     2.6175      0.000860
     2.6180      0.000830
     2.6185      0.000810
     2.6190      0.000530
     2.6195      0.000190
     2.6200      0.000000
     2.6205      0.000000
     2.6210      0.000000
     2.6215      0.000000
     2.6220      0.000000
     2.6225      0.000000
     2.6230      0.000000
     2.6235      0.000000
     2.6240      0.000000
     2.6245      0.000020
     2.6250      0.000130
     2.6255      0.000130
     2.6260      0.000070
     2.6265      0.000000
     2.6270      0.000000
     2.6275      0.000000
     2.6280      0.000000
     2.6285      0.000000
     2.6290      0.000000
     2.6295      0.000070
     2.6300      0.000120
     2.6305      0.000120
     2.6310      0.000020
     2.6315      0.000000
     2.6320      0.000000
     2.6325      0.000000
     2.6330      0.000000
     2.6335      0.000000
     2.6340      0.000000
     2.6345      0.000030
     2.6350      0.000220
     2.6355      0.000470
     2.6360      0.000390
     2.6365      0.000000
     2.6370      0.000000
     2.6375      0.000000
     2.6380      0.000000
     2.6385      0.000000
     2.6390      0.000000
     2.6395      0.000000
     2.6400      0.000000
     2.6405      0.000000
     2.6410      0.000000
     2.6415      0.000000
     2.6420      0.000020
     2.6425      0.000070
     2.6430      0.000110
     2.6435      0.000060
     2.6440      0.000000
     2.6445      0.000000
     2.6450      0.000000
     2.6455      0.000000
     2.6460      0.000050
     2.6465      0.000230
     2.6470      0.000090
     2.6475      0.000020
     2.6480      0.000000
     2.6485      0.000000
     2.6490      0.000100
     2.6495      0.000160
     2.6500      0.000190
     2.6505      0.000220
     2.6510      0.000510
     2.6515      0.000790
     2.6520      0.000930
     2.6525      0.000470
     2.6530      0.000160
     2.6535      0.000000
     2.6540      0.000000
     2.6545      0.000000
     2.6550      0.000000
     2.6555      0.000000
     2.6560      0.000000
     2.6565      0.000000
     2.6570      0.000000
     2.6575      0.000030
     2.6580      0.000180
     2.6585      0.000420
     2.6590      0.000660
     2.6595      0.000760
     2.6600      0.000320
     2.6605      0.000090
     2.6610      0.000000
     2.6615      0.000000
     2.6620      0.000000
     2.6625      0.000000
     2.6630      0.000010
     2.6635      0.000050
     2.6640      0.000180
     2.6645      0.000300
     2.6650      0.000410
     2.6655      0.000490
     2.6660      0.000570
     2.6665      0.000510
     2.6670      0.000300
     2.6675      0.000130
     2.6680      0.000300
     2.6685      0.000540
     2.6690      0.000690
     2.6695      0.000810
     2.6700      0.001260
     2.6705      0.001700
     2.6710      0.001460
     2.6715      0.001210
     2.6720      0.001120
     2.6725      0.001150
     2.6730      0.000830
     2.6735      0.000380
     2.6740      0.000070
     2.6745      0.000070
     2.6750      0.000250
     2.6755      0.000440
     2.6760      0.000640
     2.6765      0.000790
     2.6770      0.000520
     2.6775      0.000230
     2.6780      0.000060
     2.6785      0.000260
     2.6790      0.000340
     2.6795      0.000280
     2.6800      0.000050
     2.6805      0.000010
     2.6810      0.000110
     2.6815      0.000320
     2.6820      0.000590
     2.6825      0.000810
     2.6830      0.000890
     2.6835      0.000790
     2.6840      0.000630
     2.6845      0.000560
     2.6850      0.000510
     2.6855      0.000310
     2.6860      0.000250
     2.6865      0.000320
     2.6870      0.000490
     2.6875      0.000260
     2.6880      0.000100
     2.6885      0.000000
     2.6890      0.000000
     2.6895      0.000000
     2.6900      0.000030
     2.6905      0.000090
     2.6910      0.000160
     2.6915      0.000100
     2.6920      0.000000
     2.6925      0.000000
     2.6930      0.000120
     2.6935      0.000220
     2.6940      0.000270
     2.6945      0.000190
     2.6950      0.000340
     2.6955      0.000610
     2.6960      0.000890
     2.6965      0.000660
     2.6970      0.000450
     2.6975      0.000360
     2.6980      0.000390
     2.6985      0.000220
     2.6990      0.000090
     2.6995      0.000360
     2.7000      0.000730
     2.7005      0.000940
     2.7010      0.000910
     2.7015      0.000760
     2.7020      0.000390
     2.7025      0.000000
     2.7030      0.000000
     2.7035      0.000290
     2.7040      0.000760
     2.7045      0.001370
     2.7050      0.001290
     2.7055      0.001090
     2.7060      0.000860
     2.7065      0.000870
     2.7070      0.000880
     2.7075      0.000940
     2.7080      0.001060
     2.7085      0.001450
     2.7090      0.001580
     2.7095      0.001430
     2.7100      0.001070
     2.7105      0.001100
     2.7110      0.001230
     2.7115      0.001110
     2.7120      0.000540
     2.7125      0.000110
     2.7130      0.000000
     2.7135      0.000000
     2.7140      0.000050
     2.7145      0.000140
     2.7150      0.000280
     2.7155      0.000410
     2.7160      0.000600
     2.7165      0.000890
     2.7170      0.001000
     2.7175      0.000970
     2.7180      0.000800
     2.7185      0.000610
     2.7190      0.000630
     2.7195      0.000860
     2.7200      0.001410
     2.7205      0.001700
     2.7210      0.001710
     2.7215      0.001350
     2.7220      0.000820
     2.7225      0.000590
     2.7230      0.000750
     2.7235      0.001580
     2.7240      0.001920
     2.7245      0.001920
     2.7250      0.001740
     2.7255      0.001610
     2.7260      0.001350
     2.7265      0.000750
     2.7270      0.000480
     2.7275      0.000680
     2.7280      0.001370
     2.7285      0.001900
     2.7290      0.001970
     2.7295      0.001700
     2.7300      0.001280
     2.7305      0.001040
     2.7310      0.000900
     2.7315      0.000850
     2.7320      0.000930
     2.7325      0.001080
     2.7330      0.001300
     2.7335      0.001390
     2.7340      0.001340
     2.7345      0.001170
     2.7350      0.001170
     2.7355      0.001180
     2.7360      0.001180
     2.7365      0.001110
     2.7370      0.001310
     2.7375      0.001550
     2.7380      0.001670
     2.7385      0.001460
     2.7390      0.001420
     2.7395      0.001720
     2.7400      0.001930
     2.7405      0.001870
     2.7410      0.001570
     2.7415      0.001300
     2.7420      0.001090
     2.7425      0.000950
     2.7430      0.000910
     2.7435      0.000900
     2.7440      0.000930
     2.7445      0.001070
     2.7450      0.001530
     2.7455      0.001900
     2.7460      0.001990
     2.7465      0.001520
     2.7470      0.001100
     2.7475      0.000790
     2.7480      0.000750
     2.7485      0.000880
     2.7490      0.001170
     2.7495      0.001540
     2.7500      0.001610
     2.7505      0.001470
     2.7510      0.001290
     2.7515      0.001390
     2.7520      0.001700
     2.7525      0.002240
     2.7530      0.002480
     2.7535      0.002420
     2.7540      0.001870
     2.7545      0.001620
     2.7550      0.001690
     2.7555      0.002170
     2.7560      0.002110
     2.7565      0.001880
     2.7570      0.001500
     2.7575      0.001620
     2.7580      0.001960
     2.7585      0.002460
     2.7590      0.002470
     2.7595      0.002340
     2.7600      0.002170
     2.7605      0.002280
     2.7610      0.002170
     2.7615      0.001910
     2.7620      0.001490
     2.7625      0.001480
     2.7630      0.001710
     2.7635      0.002220
     2.7640      0.002550
     2.7645      0.002690
     2.7650      0.002490
     2.7655      0.002410
     2.7660      0.002500
     2.7665      0.002860
     2.7670      0.003210
     2.7675      0.003370
     2.7680      0.003240
     2.7685      0.002690
     2.7690      0.002140
     2.7695      0.001640
     2.7700      0.001680
     2.7705      0.001890
     2.7710      0.002250
     2.7715      0.002080
     2.7720      0.001790
     2.7725      0.001420
     2.7730      0.001660
     2.7735      0.002110
     2.7740      0.002720
     2.7745      0.003190
     2.7750      0.003500
     2.7755      0.003670
     2.7760      0.003700
     2.7765      0.003790
     2.7770      0.003910
     2.7775      0.003990
     2.7780      0.004030
     2.7785      0.004020
     2.7790      0.003890
     2.7795      0.003660
     2.7800      0.003410
     2.7805      0.003320
     2.7810      0.003310
     2.7815      0.003350
     2.7820      0.003390
     2.7825      0.003460
     2.7830      0.003520
     2.7835      0.003430
     2.7840      0.003420
     2.7845      0.003540
     2.7850      0.004010
     2.7855      0.004540
     2.7860      0.005070
     2.7865      0.005520
     2.7870      0.005710
     2.7875      0.005730
     2.7880      0.005500
     2.7885      0.005500
     2.7890      0.005600
     2.7895      0.005760
     2.7900      0.005810
     2.7905      0.005840
     2.7910      0.005930
     2.7915      0.006030
     2.7920      0.006170
     2.7925      0.006400
     2.7930      0.006690
     2.7935      0.006980
     2.7940      0.007160
     2.7945      0.007260
     2.7950      0.007350
     2.7955      0.007550
     2.7960      0.007890
     2.7965      0.008300
     2.7970      0.008690
     2.7975      0.008860
     2.7980      0.008850
     2.7985      0.008550
     2.7990      0.008430
     2.7995      0.008480
     2.8000      0.008960
     2.8005      0.009300
     2.8010      0.009520
     2.8015      0.009420
     2.8020      0.009580
     2.8025      0.009950
     2.8030      0.010660
     2.8035      0.011140
     2.8040      0.011450
     2.8045      0.011830
     2.8050      0.012460
     2.8055      0.013290
     2.8060      0.013640
     2.8065      0.013710
     2.8070      0.013490
     2.8075      0.013480
     2.8080      0.013620
     2.8085      0.013920
     2.8090      0.014490
     2.8095      0.015120
     2.8100      0.015790
     2.8105      0.016240
     2.8110      0.016680
     2.8115      0.017110
     2.8120      0.017600
     2.8125      0.018010
     2.8130      0.018230
     2.8135      0.018630
     2.8140      0.019280
     2.8145      0.020420
     2.8150      0.021360
     2.8155      0.022080
     2.8160      0.022310
     2.8165      0.022540
     2.8170      0.022820
     2.8175      0.023380
     2.8180      0.024360
     2.8185      0.025590
     2.8190      0.026890
     2.8195      0.027920
     2.8200      0.028730
     2.8205      0.029590
     2.8210      0.030510
     2.8215      0.031500
     2.8220      0.032590
     2.8225      0.033800
     2.8230      0.035170
     2.8235      0.036360
     2.8240      0.037460
     2.8245      0.038410
     2.8250      0.039610
     2.8255      0.040900
     2.8260      0.042280
     2.8265      0.043760
     2.8270      0.045370
     2.8275      0.047380
     2.8280      0.049430
     2.8285      0.051510
     2.8290      0.053530
     2.8295      0.055500
     2.8300      0.057420
     2.8305      0.059000
     2.8310      0.060680
     2.8315      0.062480
     2.8320      0.064950
     2.8325      0.067690
     2.8330      0.070750
     2.8335      0.073720
     2.8340      0.076630
     2.8345      0.079450
     2.8350      0.082910
     2.8355      0.086670
     2.8360      0.090750
     2.8365      0.094460
     2.8370      0.097980
     2.8375      0.101800
     2.8380      0.106020
     2.8385      0.110580
     2.8390      0.115150
     2.8395      0.119820
     2.8400      0.124640
     2.8405      0.129870
     2.8410      0.135320
     2.8415      0.141090
     2.8420      0.147270
     2.8425      0.153670
     2.8430      0.160460
     2.8435      0.167560
     2.8440      0.174860
     2.8445      0.182580
     2.8450      0.190620
     2.8455      0.198940
     2.8460      0.207740
     2.8465      0.216650
     2.8470      0.225700
     2.8475      0.234940
     2.8480      0.244420
     2.8485      0.254430
     2.8490      0.264990
     2.8495      0.275780
     2.8500      0.286520
     2.8505      0.297040
     2.8510      0.307400
     2.8515      0.317740
     2.8520      0.328250
     2.8525      0.339000
     2.8530      0.349640
     2.8535      0.359990
     2.8540      0.369680
     2.8545      0.378860
     2.8550      0.387690
     2.8555      0.395640
     2.8560      0.402610
     2.8565      0.408860
     2.8570      0.413560
     2.8575      0.417780
     2.8580      0.421340
     2.8585      0.423840
     2.8590      0.425700
     2.8595      0.426370
     2.8600      0.425820
     2.8605      0.424550
     2.8610      0.421820
     2.8615      0.418420
     2.8620      0.414460
     2.8625      0.409540
     2.8630      0.404110
     2.8635      0.397910
     2.8640      0.390710
     2.8645      0.383090
     2.8650      0.374860
     2.8655      0.366470
     2.8660      0.358000
     2.8665      0.349750
     2.8670      0.341610
     2.8675      0.333600
     2.8680      0.325300
     2.8685      0.316890
     2.8690      0.308300
     2.8695      0.300050
     2.8700      0.291970
     2.8705      0.284060
     2.8710      0.276190
     2.8715      0.268340
     2.8720      0.260860
     2.8725      0.253530
     2.8730      0.246450
     2.8735      0.239850
     2.8740      0.233460
     2.8745      0.227400
     2.8750      0.221370
     2.8755      0.215370
     2.8760      0.209510
     2.8765      0.203780
     2.8770      0.198250
     2.8775      0.192950
     2.8780      0.187770
     2.8785      0.182830
     2.8790      0.178480
     2.8795      0.174520
     2.8800      0.171170
     2.8805      0.167550
     2.8810      0.163550
     2.8815      0.159410
     2.8820      0.155360
     2.8825      0.151850
     2.8830      0.148540
     2.8835      0.145370
     2.8840      0.142310
     2.8845      0.139330
     2.8850      0.136500
     2.8855      0.133780
     2.8860      0.131120
     2.8865      0.128510
     2.8870      0.125940
     2.8875      0.123380
     2.8880      0.120960
     2.8885      0.118640
     2.8890      0.116470
     2.8895      0.114220
     2.8900      0.111970
     2.8905      0.109900
     2.8910      0.108340
     2.8915      0.107240
     2.8920      0.106480
     2.8925      0.105610
     2.8930      0.104390
     2.8935      0.102750
     2.8940      0.100910
     2.8945      0.099050
     2.8950      0.097460
     2.8955      0.096230
     2.8960      0.095190
     2.8965      0.094150
     2.8970      0.092960
     2.8975      0.091780
     2.8980      0.090590
     2.8985      0.089570
     2.8990      0.088530
     2.8995      0.087440
     2.9000      0.086330
     2.9005      0.085260
     2.9010      0.084520
     2.9015      0.083760
     2.9020      0.082980
     2.9025      0.082160
     2.9030      0.081410
     2.9035      0.080880
     2.9040      0.080210
     2.9045      0.079450
     2.9050      0.078620
     2.9055      0.077950
     2.9060      0.077520
     2.9065      0.077100
     2.9070      0.076650
     2.9075      0.076060
     2.9080      0.075490
     2.9085      0.074950
     2.9090      0.074550
     2.9095      0.074210
     2.9100      0.073940
     2.9105      0.073710
     2.9110      0.073500
     2.9115      0.073430
     2.9120      0.073340
     2.9125      0.073180
     2.9130      0.072730
     2.9135      0.072110
     2.9140      0.071390
     2.9145      0.070830
     2.9150      0.070530
     2.9155      0.070410
     2.9160      0.070310
     2.9165      0.070000
     2.9170      0.069620
     2.9175      0.069170
     2.9180      0.068890
     2.9185      0.068640
     2.9190      0.068430
     2.9195      0.068380
     2.9200      0.068450
     2.9205      0.068790
     2.9210      0.069020
     2.9215      0.068870
     2.9220      0.068630
     2.9225      0.068330
     2.9230      0.068520
     2.9235      0.068770
     2.9240      0.069110
     2.9245      0.069420
     2.9250      0.069700
     2.9255      0.069490
     2.9260      0.069160
     2.9265      0.068640
     2.9270      0.068610
     2.9275      0.068770
     2.9280      0.069040
     2.9285      0.069210
     2.9290      0.069250
     2.9295      0.069520
     2.9300      0.069850
     2.9305      0.070060
     2.9310      0.070190
     2.9315      0.070230
     2.9320      0.070570
     2.9325      0.070960
     2.9330      0.071230
     2.9335      0.071350
     2.9340      0.071280
     2.9345      0.071420
     2.9350      0.071630
     2.9355      0.071920
     2.9360      0.072210
     2.9365      0.072500
     2.9370      0.073080
     2.9375      0.073660
     2.9380      0.073950
     2.9385      0.074060
     2.9390      0.073990
     2.9395      0.074460
     2.9400      0.075040
     2.9405      0.075600
     2.9410      0.075760
     2.9415      0.075510
     2.9420      0.075660
     2.9425      0.076040
     2.9430      0.077170
     2.9435      0.078040
     2.9440      0.078640
     2.9445      0.078750
     2.9450      0.078800
     2.9455      0.079100
     2.9460      0.079490
     2.9465      0.079990
     2.9470      0.080420
     2.9475      0.080820
     2.9480      0.081080
     2.9485      0.081490
     2.9490      0.082070
     2.9495      0.083260
     2.9500      0.084580
     2.9505      0.085540
     2.9510      0.086220
     2.9515      0.086510
     2.9520      0.087070
     2.9525      0.087720
     2.9530      0.088560
     2.9535      0.089380
     2.9540      0.090170
     2.9545      0.090870
     2.9550      0.091540
     2.9555      0.092120
     2.9560      0.092780
     2.9565      0.093580
     2.9570      0.094310
     2.9575      0.095000
     2.9580      0.095730
     2.9585      0.096580
     2.9590      0.097750
     2.9595      0.098850
     2.9600      0.099920
     2.9605      0.100860
     2.9610      0.101800
     2.9615      0.102740
     2.9620      0.103660
     2.9625      0.104560
     2.9630      0.105670
     2.9635      0.106810
     2.9640      0.107810
     2.9645      0.108660
     2.9650      0.109290
     2.9655      0.110270
     2.9660      0.111390
     2.9665      0.112860
     2.9670      0.114250
     2.9675      0.115480
     2.9680      0.116640
     2.9685      0.117760
     2.9690      0.118770
     2.9695      0.119810
     2.9700      0.120930
     2.9705      0.122140
     2.9710      0.123420
     2.9715      0.124740
     2.9720      0.126070
     2.9725      0.127380
     2.9730      0.128570
     2.9735      0.129610
     2.9740      0.131080
     2.9745      0.132730
     2.9750      0.134800
     2.9755      0.136670
     2.9760      0.138120
     2.9765      0.139520
     2.9770      0.140890
     2.9775      0.142030
     2.9780      0.143110
     2.9785      0.144030
     2.9790      0.145360
     2.9795      0.147140
     2.9800      0.148960
     2.9805      0.150750
     2.9810      0.152060
     2.9815      0.153520
     2.9820      0.155280
     2.9825      0.157240
     2.9830      0.159310
     2.9835      0.161150
     2.9840      0.162970
     2.9845      0.164820
     2.9850      0.166630
     2.9855      0.168400
     2.9860      0.170090
     2.9865      0.171750
     2.9870      0.173620
     2.9875      0.175530
     2.9880      0.177550
     2.9885      0.179580
     2.9890      0.181610
     2.9895      0.183540
     2.9900      0.185530
     2.9905      0.187920
     2.9910      0.190490
     2.9915      0.193320
     2.9920      0.195790
     2.9925      0.198110
     2.9930      0.200270
     2.9935      0.202410
     2.9940      0.204480
     2.9945      0.206420
     2.9950      0.208230
     2.9955      0.210450
     2.9960      0.212810
     2.9965      0.215670
     2.9970      0.218560
     2.9975      0.221520
     2.9980      0.224230
     2.9985      0.226750
     2.9990      0.228760
     2.9995      0.230770
     3.0000      0.233490
     3.0005      0.236510
     3.0010      0.240020
     3.0015      0.243180
     3.0020      0.246130
     3.0025      0.249060
     3.0030      0.252010
     3.0035      0.255120
     3.0040      0.258100
     3.0045      0.260940
     3.0050      0.263950
     3.0055      0.267050
     3.0060      0.270570
     3.0065      0.274140
     3.0070      0.277770
     3.0075      0.281200
     3.0080      0.284380
     3.0085      0.287380
     3.0090      0.290310
     3.0095      0.293820
     3.0100      0.297360
     3.0105      0.300910
     3.0110      0.304330
     3.0115      0.307590
     3.0120      0.311240
     3.0125      0.315040
     3.0130      0.319030
     3.0135      0.322930
     3.0140      0.326500
     3.0145      0.330040
     3.0150      0.333550
     3.0155      0.337270
     3.0160      0.341080
     3.0165      0.345420
     3.0170      0.349790
     3.0175      0.354220
     3.0180      0.358350
     3.0185      0.362110
     3.0190      0.365770
     3.0195      0.369390
     3.0200      0.373400
     3.0205      0.377500
     3.0210      0.381940
     3.0215      0.386470
     3.0220      0.391140
     3.0225      0.395550
     3.0230      0.399810
     3.0235      0.404020
     3.0240      0.408280
     3.0245      0.412830
     3.0250      0.417360
     3.0255      0.421820
     3.0260      0.426340
     3.0265      0.430910
     3.0270      0.435550
     3.0275      0.440180
     3.0280      0.444520
     3.0285      0.448790
     3.0290      0.452880
     3.0295      0.456940
     3.0300      0.460970
     3.0305      0.465160
     3.0310      0.469400
     3.0315      0.473790
     3.0320      0.478150
     3.0325      0.482420
     3.0330      0.486680
     3.0335      0.490920
     3.0340      0.495240
     3.0345      0.499600
     3.0350      0.503730
     3.0355      0.507770
     3.0360      0.511210
     3.0365      0.514710
     3.0370      0.518310
     3.0375      0.522240
     3.0380      0.526420
     3.0385      0.530180
     3.0390      0.533800
     3.0395      0.536940
     3.0400      0.540150
     3.0405      0.543610
     3.0410      0.546970
     3.0415      0.550190
     3.0420      0.553150
     3.0425      0.555970
     3.0430      0.558790
     3.0435      0.561610
     3.0440      0.564340
     3.0445      0.566960
     3.0450      0.569360
     3.0455      0.571670
     3.0460      0.573910
     3.0465      0.576140
     3.0470      0.578370
     3.0475      0.580240
     3.0480      0.582030
     3.0485      0.583520
     3.0490      0.585060
     3.0495      0.586700
     3.0500      0.588280
     3.0505      0.589820
     3.0510      0.590880
     3.0515      0.591780
     3.0520      0.592460
     3.0525      0.593220
     3.0530      0.594510
     3.0535      0.595760
     3.0540      0.596950
     3.0545      0.597560
     3.0550      0.597730
     3.0555      0.597460
     3.0560      0.597050
     3.0565      0.596470
     3.0570      0.595920
     3.0575      0.595580
     3.0580      0.595310
     3.0585      0.595170
     3.0590      0.594840
     3.0595      0.594340
     3.0600      0.593640
     3.0605      0.592860
     3.0610      0.591770
     3.0615      0.590610
     3.0620      0.589110
     3.0625      0.587650
     3.0630      0.586270
     3.0635      0.584940
     3.0640      0.583680
     3.0645      0.582130
     3.0650      0.580460
     3.0655      0.578480
     3.0660      0.576480
     3.0665      0.574720
     3.0670      0.573000
     3.0675      0.571390
     3.0680      0.569460
     3.0685      0.567120
     3.0690      0.564520
     3.0695      0.561770
     3.0700      0.559410
     3.0705      0.557140
     3.0710      0.554940
     3.0715      0.552690
     3.0720      0.550180
     3.0725      0.547590
     3.0730      0.544840
     3.0735      0.541880
     3.0740      0.538740
     3.0745      0.535590
     3.0750      0.532420
     3.0755      0.529460
     3.0760      0.526550
     3.0765      0.523870
     3.0770      0.521220
     3.0775      0.518670
     3.0780      0.515890
     3.0785      0.512780
     3.0790      0.509570
     3.0795      0.506290
     3.0800      0.503190
     3.0805      0.500140
     3.0810      0.496720
     3.0815      0.493310
     3.0820      0.490190
     3.0825      0.487160
     3.0830      0.484420
     3.0835      0.481420
     3.0840      0.478060
     3.0845      0.474900
     3.0850      0.471880
     3.0855      0.469160
     3.0860      0.466530
     3.0865      0.463230
     3.0870      0.459870
     3.0875      0.456470
     3.0880      0.453170
     3.0885      0.450170
     3.0890      0.447210
     3.0895      0.444330
     3.0900      0.441460
     3.0905      0.438590
     3.0910      0.435570
     3.0915      0.432500
     3.0920      0.429370
     3.0925      0.426240
     3.0930      0.423130
     3.0935      0.420020
     3.0940      0.416920
     3.0945      0.413930
     3.0950      0.411140
     3.0955      0.408390
     3.0960      0.405670
     3.0965      0.402530
     3.0970      0.399160
     3.0975      0.395770
     3.0980      0.392360
     3.0985      0.389760
     3.0990      0.387190
     3.0995      0.384640
     3.1000      0.382000
     3.1005      0.379050
     3.1010      0.376190
     3.1015      0.373450
     3.1020      0.370780
     3.1025      0.368180
     3.1030      0.365460
     3.1035      0.362680
     3.1040      0.359920
     3.1045      0.357170
     3.1050      0.354590
     3.1055      0.352000
     3.1060      0.349300
     3.1065      0.346610
     3.1070      0.344010
     3.1075      0.341550
     3.1080      0.339320
     3.1085      0.337090
     3.1090      0.334850
     3.1095      0.332410
     3.1100      0.329880
     3.1105      0.327240
     3.1110      0.324570
     3.1115      0.322290
     3.1120      0.320060
     3.1125      0.318210
     3.1130      0.316320
     3.1135      0.314190
     3.1140      0.311990
     3.1145      0.309620
     3.1150      0.307350
     3.1155      0.305190
     3.1160      0.302960
     3.1165      0.300670
     3.1170      0.298300
     3.1175      0.295900
     3.1180      0.294210
     3.1185      0.292670
     3.1190      0.291330
     3.1195      0.289950
     3.1200      0.288050
     3.1205      0.286110
     3.1210      0.284030
     3.1215      0.281940
     3.1220      0.279810
     3.1225      0.277810
     3.1230      0.275940
     3.1235      0.274280
     3.1240      0.272760
     3.1245      0.271290
     3.1250      0.269840
     3.1255      0.267990
     3.1260      0.266030
     3.1265      0.263740
     3.1270      0.261430
     3.1275      0.259870
     3.1280      0.258380
     3.1285      0.257250
     3.1290      0.256030
     3.1295      0.254580
     3.1300      0.253090
     3.1305      0.251550
     3.1310      0.250060
     3.1315      0.248630
     3.1320      0.247360
     3.1325      0.246200
     3.1330      0.245010
     3.1335      0.243800
     3.1340      0.242320
     3.1345      0.240780
     3.1350      0.239350
     3.1355      0.237940
     3.1360      0.236760
     3.1365      0.235570
     3.1370      0.234240
     3.1375      0.232880
     3.1380      0.231430
     3.1385      0.230050
     3.1390      0.228820
     3.1395      0.227620
     3.1400      0.226440
     3.1405      0.225210
     3.1410      0.223950
     3.1415      0.222800
     3.1420      0.221740
     3.1425      0.220730
     3.1430      0.219730
     3.1435      0.218640
     3.1440      0.217530
     3.1445      0.216640
     3.1450      0.215780
     3.1455      0.214970
     3.1460      0.214120
     3.1465      0.212850
     3.1470      0.211600
     3.1475      0.210420
     3.1480      0.209300
     3.1485      0.208360
     3.1490      0.207450
     3.1495      0.206600
     3.1500      0.205840
     3.1505      0.205200
     3.1510      0.204640
     3.1515      0.204130
     3.1520      0.203550
     3.1525      0.202900
     3.1530      0.201930
     3.1535      0.200800
     3.1540      0.199760
     3.1545      0.198740
     3.1550      0.198260
     3.1555      0.197870
     3.1560      0.197370
     3.1565      0.196860
     3.1570      0.195890
     3.1575      0.194910
     3.1580      0.193720
     3.1585      0.192580
     3.1590      0.191640
     3.1595      0.190810
     3.1600      0.190330
     3.1605      0.189850
     3.1610      0.189340
     3.1615      0.188790
     3.1620      0.188150
     3.1625      0.187500
     3.1630      0.186850
     3.1635      0.186230
     3.1640      0.185640
     3.1645      0.185130
     3.1650      0.184660
     3.1655      0.184220
     3.1660      0.183780
     3.1665      0.183400
     3.1670      0.183040
     3.1675      0.182620
     3.1680      0.182190
     3.1685      0.181490
     3.1690      0.180760
     3.1695      0.180190
     3.1700      0.179630
     3.1705      0.179230
     3.1710      0.178820
     3.1715      0.178190
     3.1720      0.177580
     3.1725      0.177200
     3.1730      0.176880
     3.1735      0.176840
     3.1740      0.176710
     3.1745      0.176320
     3.1750      0.175850
     3.1755      0.175180
     3.1760      0.174550
     3.1765      0.174000
     3.1770      0.173490
     3.1775      0.173060
     3.1780      0.172710
     3.1785      0.172460
     3.1790      0.172320
     3.1795      0.172290
     3.1800      0.172090
     3.1805      0.171740
     3.1810      0.171320
     3.1815      0.170850
     3.1820      0.170540
     3.1825      0.170320
     3.1830      0.170220
     3.1835      0.170170
     3.1840      0.170210
     3.1845      0.170300
     3.1850      0.170140
     3.1855      0.169930
     3.1860      0.169440
     3.1865      0.168890
     3.1870      0.168490
     3.1875      0.168100
     3.1880      0.167870
     3.1885      0.167670
     3.1890      0.167730
     3.1895      0.167810
     3.1900      0.167920
     3.1905      0.168020
     3.1910      0.167900
     3.1915      0.167790
     3.1920      0.167660
     3.1925      0.167480
     3.1930      0.166870
     3.1935      0.166230
     3.1940      0.165350
     3.1945      0.164620
     3.1950      0.164570
     3.1955      0.164650
     3.1960      0.165290
     3.1965      0.165910
     3.1970      0.166480
     3.1975      0.166910
     3.1980      0.166960
     3.1985      0.166870
     3.1990      0.166420
     3.1995      0.165960
     3.2000      0.165510
     3.2005      0.165150
     3.2010      0.164980
     3.2015      0.164920
     3.2020      0.165050
     3.2025      0.165120
     3.2030      0.165090
     3.2035      0.164870
     3.2040      0.164370
     3.2045      0.163960
     3.2050      0.163680
     3.2055      0.163510
     3.2060      0.163490
     3.2065      0.163370
     3.2070      0.163120
     3.2075      0.162850
     3.2080      0.162570
     3.2085      0.162430
     3.2090      0.162440
     3.2095      0.162500
     3.2100      0.162630
     3.2105      0.162730
     3.2110      0.162790
     3.2115      0.162900
     3.2120      0.163060
     3.2125      0.163260
     3.2130      0.163500
     3.2135      0.163670
     3.2140      0.163760
     3.2145      0.163720
     3.2150      0.163570
     3.2155      0.163420
     3.2160      0.163270
     3.2165      0.163100
     3.2170      0.162910
     3.2175      0.162550
     3.2180      0.162060
     3.2185      0.161710
     3.2190      0.161460
     3.2195      0.161440
     3.2200      0.161590
     3.2205      0.161610
     3.2210      0.161540
     3.2215      0.161420
     3.2220      0.161280
     3.2225      0.161190
     3.2230      0.161140
     3.2235      0.161060
     3.2240      0.160950
     3.2245      0.160950
     3.2250      0.161050
     3.2255      0.161160
     3.2260      0.161290
     3.2265      0.161230
     3.2270      0.161030
     3.2275      0.160890
     3.2280      0.160830
     3.2285      0.160810
     3.2290      0.160850
     3.2295      0.160730
     3.2300      0.160460
     3.2305      0.160110
     3.2310      0.159700
     3.2315      0.159260
     3.2320      0.158800
     3.2325      0.158450
     3.2330      0.158220
     3.2335      0.158080
     3.2340      0.158020
     3.2345      0.157980
     3.2350      0.157930
     3.2355      0.158010
     3.2360      0.158250
     3.2365      0.158350
     3.2370      0.158250
     3.2375      0.157950
     3.2380      0.157360
     3.2385      0.156970
     3.2390      0.156920
     3.2395      0.157000
     3.2400      0.157310
     3.2405      0.157510
     3.2410      0.157460
     3.2415      0.157390
     3.2420      0.157260
     3.2425      0.157170
     3.2430      0.157200
     3.2435      0.157190
     3.2440      0.157040
     3.2445      0.156840
     3.2450      0.156460
     3.2455      0.156070
     3.2460      0.155600
     3.2465      0.155190
     3.2470      0.155150
     3.2475      0.155160
     3.2480      0.155640
     3.2485      0.156080
     3.2490      0.156170
     3.2495      0.156240
     3.2500      0.155900
     3.2505      0.155560
     3.2510      0.155450
     3.2515      0.155350
     3.2520      0.155430
     3.2525      0.155510
     3.2530      0.155200
     3.2535      0.154860
     3.2540      0.154350
     3.2545      0.153830
     3.2550      0.153720
     3.2555      0.153680
     3.2560      0.153620
     3.2565      0.153560
     3.2570      0.153500
     3.2575      0.153430
     3.2580      0.153400
     3.2585      0.153380
     3.2590      0.152960
     3.2595      0.152330
     3.2600      0.151920
     3.2605      0.151640
     3.2610      0.151720
     3.2615      0.152070
     3.2620      0.152270
     3.2625      0.152330
     3.2630      0.152310
     3.2635      0.152180
     3.2640      0.152050
     3.2645      0.151920
     3.2650      0.151860
     3.2655      0.151920
     3.2660      0.151920
     3.2665      0.151770
     3.2670      0.151470
     3.2675      0.150710
     3.2680      0.150040
     3.2685      0.149760
     3.2690      0.149570
     3.2695      0.150120
     3.2700      0.150650
     3.2705      0.150890
     3.2710      0.151130
     3.2715      0.150760
     3.2720      0.150390
     3.2725      0.150160
     3.2730      0.149940
     3.2735      0.149940
     3.2740      0.149970
     3.2745      0.149820
     3.2750      0.149630
     3.2755      0.149390
     3.2760      0.149130
     3.2765      0.149010
     3.2770      0.148950
     3.2775      0.148880
     3.2780      0.148810
     3.2785      0.148690
     3.2790      0.148540
     3.2795      0.148410
     3.2800      0.148330
     3.2805      0.148240
     3.2810      0.148140
     3.2815      0.148090
     3.2820      0.148160
     3.2825      0.148260
     3.2830      0.148480
     3.2835      0.148670
     3.2840      0.148610
     3.2845      0.148540
     3.2850      0.148400
     3.2855      0.148250
     3.2860      0.148430
     3.2865      0.148610
     3.2870      0.148790
     3.2875      0.148960
     3.2880      0.148950
     3.2885      0.148900
     3.2890      0.148810
     3.2895      0.148710
     3.2900      0.148600
     3.2905      0.148490
     3.2910      0.148500
     3.2915      0.148610
     3.2920      0.148810
     3.2925      0.149110
     3.2930      0.149330
     3.2935      0.149390
     3.2940      0.149420
     3.2945      0.149340
     3.2950      0.149280
     3.2955      0.149250
     3.2960      0.149250
     3.2965      0.149510
     3.2970      0.149770
     3.2975      0.149990
     3.2980      0.150210
     3.2985      0.149990
     3.2990      0.149730
     3.2995      0.149870
     3.3000      0.150110
     3.3005      0.150670
     3.3010      0.151370
     3.3015      0.151740
     3.3020      0.151900
     3.3025      0.151950
     3.3030      0.151900
     3.3035      0.151850
     3.3040      0.151820
     3.3045      0.151820
     3.3050      0.151880
     3.3055      0.152000
     3.3060      0.152370
     3.3065      0.152740
     3.3070      0.153160
     3.3075      0.153580
     3.3080      0.153840
     3.3085      0.154080
     3.3090      0.154430
     3.3095      0.154790
     3.3100      0.155170
     3.3105      0.155560
     3.3110      0.155850
     3.3115      0.156080
     3.3120      0.156390
     3.3125      0.156760
     3.3130      0.157100
     3.3135      0.157380
     3.3140      0.157610
     3.3145      0.157740
     3.3150      0.157940
     3.3155      0.158550
     3.3160      0.159180
     3.3165      0.159930
     3.3170      0.160690
     3.3175      0.160990
     3.3180      0.161240
     3.3185      0.161430
     3.3190      0.161600
     3.3195      0.161840
     3.3200      0.162120
     3.3205      0.162360
     3.3210      0.162560
     3.3215      0.162820
     3.3220      0.163170
     3.3225      0.163530
     3.3230      0.163950
     3.3235      0.164410
     3.3240      0.165040
     3.3245      0.165680
     3.3250      0.166520
     3.3255      0.167360
     3.3260      0.167910
     3.3265      0.168430
     3.3270      0.168870
     3.3275      0.169300
     3.3280      0.169760
     3.3285      0.170240
     3.3290      0.170760
     3.3295      0.171300
     3.3300      0.171900
     3.3305      0.172620
     3.3310      0.173280
     3.3315      0.173670
     3.3320      0.174080
     3.3325      0.174670
     3.3330      0.175260
     3.3335      0.176330
     3.3340      0.177440
     3.3345      0.178080
     3.3350      0.178580
     3.3355      0.178910
     3.3360      0.179140
     3.3365      0.179640
     3.3370      0.180430
     3.3375      0.181220
     3.3380      0.182010
     3.3385      0.182810
     3.3390      0.183640
     3.3395      0.184490
     3.3400      0.185570
     3.3405      0.186660
     3.3410      0.187500
     3.3415      0.188300
     3.3420      0.189050
     3.3425      0.189770
     3.3430      0.190510
     3.3435      0.191240
     3.3440      0.191870
     3.3445      0.192350
     3.3450      0.192980
     3.3455      0.193980
     3.3460      0.195040
     3.3465      0.196480
     3.3470      0.197930
     3.3475      0.198670
     3.3480      0.199370
     3.3485      0.199900
     3.3490      0.200400
     3.3495      0.201400
     3.3500      0.202710
     3.3505      0.204090
     3.3510      0.205580
     3.3515      0.206920
     3.3520      0.207910
     3.3525      0.208890
     3.3530      0.209820
     3.3535      0.210740
     3.3540      0.211880
     3.3545      0.213040
     3.3550      0.213970
     3.3555      0.214840
     3.3560      0.215590
     3.3565      0.216280
     3.3570      0.217260
     3.3575      0.218600
     3.3580      0.220010
     3.3585      0.221580
     3.3590      0.223110
     3.3595      0.224270
     3.3600      0.225430
     3.3605      0.226720
     3.3610      0.228020
     3.3615      0.229380
     3.3620      0.230750
     3.3625      0.231960
     3.3630      0.233040
     3.3635      0.234130
     3.3640      0.235240
     3.3645      0.236380
     3.3650      0.237710
     3.3655      0.239030
     3.3660      0.240360
     3.3665      0.241700
     3.3670      0.243040
     3.3675      0.244380
     3.3680      0.245930
     3.3685      0.247590
     3.3690      0.249170
     3.3695      0.250650
     3.3700      0.252030
     3.3705      0.253130
     3.3710      0.254280
     3.3715      0.255900
     3.3720      0.257520
     3.3725      0.259280
     3.3730      0.261060
     3.3735      0.262550
     3.3740      0.263890
     3.3745      0.265270
     3.3750      0.266680
     3.3755      0.268150
     3.3760      0.269790
     3.3765      0.271420
     3.3770      0.273090
     3.3775      0.274760
     3.3780      0.276310
     3.3785      0.277840
     3.3790      0.279250
     3.3795      0.280600
     3.3800      0.282190
     3.3805      0.284020
     3.3810      0.285970
     3.3815      0.288200
     3.3820      0.290390
     3.3825      0.292070
     3.3830      0.293760
     3.3835      0.295220
     3.3840      0.296650
     3.3845      0.298450
     3.3850      0.300440
     3.3855      0.302400
     3.3860      0.304310
     3.3865      0.306120
     3.3870      0.307590
     3.3875      0.309080
     3.3880      0.310900
     3.3885      0.312710
     3.3890      0.314960
     3.3895      0.317300
     3.3900      0.319590
     3.3905      0.321840
     3.3910      0.323970
     3.3915      0.325910
     3.3920      0.327860
     3.3925      0.329880
     3.3930      0.331890
     3.3935      0.334040
     3.3940      0.336190
     3.3945      0.338120
     3.3950      0.339980
     3.3955      0.341660
     3.3960      0.343190
     3.3965      0.344810
     3.3970      0.346690
     3.3975      0.348590
     3.3980      0.351020
     3.3985      0.353450
     3.3990      0.355700
     3.3995      0.357920
     3.4000      0.360000
     3.4005      0.361990
     3.4010      0.364030
     3.4015      0.366170
     3.4020      0.368340
     3.4025      0.370760
     3.4030      0.373170
     3.4035      0.375630
     3.4040      0.378090
     3.4045      0.379940
     3.4050      0.381490
     3.4055      0.382940
     3.4060      0.384270
     3.4065      0.385770
     3.4070      0.387960
     3.4075      0.390150
     3.4080      0.392260
     3.4085      0.394370
     3.4090      0.396420
     3.4095      0.398430
     3.4100      0.400530
     3.4105      0.402700
     3.4110      0.404740
     3.4115      0.406360
     3.4120      0.407980
     3.4125      0.409750
     3.4130      0.411530
     3.4135      0.413630
     3.4140      0.415850
     3.4145      0.417830
     3.4150      0.419580
     3.4155      0.421310
     3.4160      0.422940
     3.4165      0.424570
     3.4170      0.426510
     3.4175      0.428460
     3.4180      0.430260
     3.4185      0.432010
     3.4190      0.433670
     3.4195      0.435240
     3.4200      0.436850
     3.4205      0.438590
     3.4210      0.440330
     3.4215      0.442030
     3.4220      0.443730
     3.4225      0.445200
     3.4230      0.446590
     3.4235      0.448050
     3.4240      0.449580
     3.4245      0.451210
     3.4250      0.453220
     3.4255      0.455230
     3.4260      0.457090
     3.4265      0.458940
     3.4270      0.460320
     3.4275      0.461460
     3.4280      0.462590
     3.4285      0.463690
     3.4290      0.464840
     3.4295      0.466310
     3.4300      0.467770
     3.4305      0.469020
     3.4310      0.470230
     3.4315      0.471280
     3.4320      0.472220
     3.4325      0.473140
     3.4330      0.473990
     3.4335      0.474830
     3.4340      0.475630
     3.4345      0.476430
     3.4350      0.477540
     3.4355      0.478730
     3.4360      0.480040
     3.4365      0.481470
     3.4370      0.482830
     3.4375      0.483990
     3.4380      0.485150
     3.4385      0.486040
     3.4390      0.486930
     3.4395      0.487650
     3.4400      0.488300
     3.4405      0.488920
     3.4410      0.489470
     3.4415      0.490050
     3.4420      0.490780
     3.4425      0.491500
     3.4430      0.492220
     3.4435      0.492930
     3.4440      0.493440
     3.4445      0.493770
     3.4450      0.494050
     3.4455      0.494200
     3.4460      0.494350
     3.4465      0.494480
     3.4470      0.494610
     3.4475      0.494600
     3.4480      0.494530
     3.4485      0.494440
     3.4490      0.494350
     3.4495      0.494250
     3.4500      0.494190
     3.4505      0.494130
     3.4510      0.493750
     3.4515      0.493280
     3.4520      0.492900
     3.4525      0.492610
     3.4530      0.492410
     3.4535      0.492610
     3.4540      0.492820
     3.4545      0.492640
     3.4550      0.492410
     3.4555      0.492100
     3.4560      0.491740
     3.4565      0.491450
     3.4570      0.491320
     3.4575      0.491200
     3.4580      0.490470
     3.4585      0.489730
     3.4590      0.488870
     3.4595      0.487950
     3.4600      0.487140
     3.4605      0.486510
     3.4610      0.485870
     3.4615      0.484980
     3.4620      0.484080
     3.4625      0.483340
     3.4630      0.482660
     3.4635      0.482100
     3.4640      0.481720
     3.4645      0.481270
     3.4650      0.480300
     3.4655      0.479320
     3.4660      0.478210
     3.4665      0.477050
     3.4670      0.476010
     3.4675      0.475090
     3.4680      0.474110
     3.4685      0.472800
     3.4690      0.471490
     3.4695      0.470230
     3.4700      0.468980
     3.4705      0.467930
     3.4710      0.467080
     3.4715      0.466100
     3.4720      0.464640
     3.4725      0.463170
     3.4730      0.461310
     3.4735      0.459390
     3.4740      0.457880
     3.4745      0.456720
     3.4750      0.455720
     3.4755      0.455280
     3.4760      0.454830
     3.4765      0.453780
     3.4770      0.452640
     3.4775      0.450910
     3.4780      0.448700
     3.4785      0.446650
     3.4790      0.445110
     3.4795      0.443580
     3.4800      0.442770
     3.4805      0.442050
     3.4810      0.440830
     3.4815      0.439220
     3.4820      0.437600
     3.4825      0.435950
     3.4830      0.434290
     3.4835      0.433180
     3.4840      0.432140
     3.4845      0.430610
     3.4850      0.428640
     3.4855      0.426600
     3.4860      0.424250
     3.4865      0.421910
     3.4870      0.420210
     3.4875      0.418630
     3.4880      0.417030
     3.4885      0.415420
     3.4890      0.413740
     3.4895      0.411700
     3.4900      0.409650
     3.4905      0.407960
     3.4910      0.406350
     3.4915      0.405110
     3.4920      0.404320
     3.4925      0.403470
     3.4930      0.402140
     3.4935      0.400800
     3.4940      0.399020
     3.4945      0.397090
     3.4950      0.395350
     3.4955      0.393930
     3.4960      0.392490
     3.4965      0.390860
     3.4970      0.389220
     3.4975      0.387680
     3.4980      0.386190
     3.4985      0.384810
     3.4990      0.383650
     3.4995      0.382490
     3.5000      0.380540
     3.5005      0.378560
     3.5010      0.376570
     3.5015      0.374580
     3.5020      0.372650
     3.5025      0.370970
     3.5030      0.369290
     3.5035      0.367600
     3.5040      0.365910
     3.5045      0.364680
     3.5050      0.363930
     3.5055      0.363220
     3.5060      0.362800
     3.5065      0.362380
     3.5070      0.361240
     3.5075      0.359870
     3.5080      0.358540
     3.5085      0.357260
     3.5090      0.355990
     3.5095      0.354710
     3.5100      0.353420
     3.5105      0.351190
     3.5110      0.348420
     3.5115      0.345820
     3.5120      0.343690
     3.5125      0.341560
     3.5130      0.340570
     3.5135      0.339740
     3.5140      0.338470
     3.5145      0.336740
     3.5150      0.335010
     3.5155      0.333210
     3.5160      0.331420
     3.5165      0.330140
     3.5170      0.329040
     3.5175      0.328030
     3.5180      0.327160
     3.5185      0.326300
     3.5190      0.325070
     3.5195      0.323820
     3.5200      0.322320
     3.5205      0.320630
     3.5210      0.319070
     3.5215      0.318150
     3.5220      0.317230
     3.5225      0.316170
     3.5230      0.315070
     3.5235      0.313930
     3.5240      0.312720
     3.5245      0.311500
     3.5250      0.311080
     3.5255      0.310660
     3.5260      0.309690
     3.5265      0.308370
     3.5270      0.307020
     3.5275      0.305570
     3.5280      0.304130
     3.5285      0.303510
     3.5290      0.303080
     3.5295      0.302240
     3.5300      0.300770
     3.5305      0.299300
     3.5310      0.296850
     3.5315      0.294400
     3.5320      0.293070
     3.5325      0.292510
     3.5330      0.292150
     3.5335      0.292670
     3.5340      0.293200
     3.5345      0.292650
     3.5350      0.291790
     3.5355      0.291010
     3.5360      0.290350
     3.5365      0.289700
     3.5370      0.289270
     3.5375      0.288860
     3.5380      0.287590
     3.5385      0.285610
     3.5390      0.283640
     3.5395      0.281720
     3.5400      0.279810
     3.5405      0.279060
     3.5410      0.278790
     3.5415      0.278760
     3.5420      0.279300
     3.5425      0.279840
     3.5430      0.279550
     3.5435      0.279140
     3.5440      0.278670
     3.5445      0.278150
     3.5450      0.277650
     3.5455      0.277540
     3.5460      0.277440
     3.5465      0.276240
     3.5470      0.274330
     3.5475      0.272400
     3.5480      0.270330
     3.5485      0.268260
     3.5490      0.267660
     3.5495      0.267550
     3.5500      0.267600
     3.5505      0.268000
     3.5510      0.268390
     3.5515      0.268350
     3.5520      0.268240
     3.5525      0.267840
     3.5530      0.267080
     3.5535      0.266320
     3.5540      0.265390
     3.5545      0.264470
     3.5550      0.263490
     3.5555      0.262480
     3.5560      0.261450
     3.5565      0.260360
     3.5570      0.259280
     3.5575      0.258610
     3.5580      0.258110
     3.5585      0.257700
     3.5590      0.257540
     3.5595      0.257380
     3.5600      0.257060
     3.5605      0.256710
     3.5610      0.256310
     3.5615      0.255820
     3.5620      0.255340
     3.5625      0.254520
     3.5630      0.253680
     3.5635      0.252350
     3.5640      0.250500
     3.5645      0.248660
     3.5650      0.247240
     3.5655      0.245810
     3.5660      0.245320
     3.5665      0.245480
     3.5670      0.245720
     3.5675      0.246430
     3.5680      0.247150
     3.5685      0.248080
     3.5690      0.249110
     3.5695      0.249940
     3.5700      0.250040
     3.5705      0.250140
     3.5710      0.249590
     3.5715      0.248850
