# author : Oliver Czoske
# source : Ester Aranzana
# date_created : 2017-11-20
# date_modified: 2025-12-16
# status: Measured at 80 K
# wavelength_unit : um
# changes :
# - 2022-03-17 (KL) Updated to match Ric Davies' email
# - 2023-06-06 (RD) Modified profiles after discussion with Schott
# - 2025-06-16 (FH) Updated filter curve based on Ric Davies' email.
# - 2025-12-16 (OC) Replaced with measured values
#
 wavelength  transmission
     0.4990      0.027850
     0.4995      0.027850
     0.5000      0.028860
     0.5005      0.018930
     0.5010      0.014840
     0.5015      0.000160
     0.5020      0.007150
     0.5025      0.003830
     0.5030      0.016440
     0.5035      0.017140
     0.5040      0.022450
     0.5045      0.028260
     0.5050      0.007970
     0.5055      0.002770
     0.5060      0.000000
     0.5065      0.006440
     0.5070      0.009130
     0.5075      0.015590
     0.5080      0.014670
     0.5085      0.017970
     0.5090      0.011140
     0.5095      0.009480
     0.5100      0.000680
     0.5105      0.001710
     0.5110      0.007470
     0.5115      0.006410
     0.5120      0.000000
     0.5125      0.001620
     0.5130      0.000450
     0.5135      0.008850
     0.5140      0.008900
     0.5145      0.007750
     0.5150      0.001810
     0.5155      0.000000
     0.5160      0.008120
     0.5165      0.006560
     0.5170      0.003020
     0.5175      0.009620
     0.5180      0.007960
     0.5185      0.002540
     0.5190      0.011020
     0.5195      0.012440
     0.5200      0.008930
     0.5205      0.014120
     0.5210      0.008970
     0.5215      0.006330
     0.5220      0.013950
     0.5225      0.007810
     0.5230      0.004110
     0.5235      0.008120
     0.5240      0.008930
     0.5245      0.009670
     0.5250      0.008660
     0.5255      0.006510
     0.5260      0.012430
     0.5265      0.005580
     0.5270      0.005900
     0.5275      0.004220
     0.5280      0.006570
     0.5285      0.006130
     0.5290      0.012040
     0.5295      0.000000
     0.5300      0.005640
     0.5305      0.003210
     0.5310      0.009760
     0.5315      0.009800
     0.5320      0.003950
     0.5325      0.005460
     0.5330      0.004130
     0.5335      0.000000
     0.5340      0.003360
     0.5345      0.000110
     0.5350      0.003200
     0.5355      0.000000
     0.5360      0.000000
     0.5365      0.000000
     0.5370      0.000000
     0.5375      0.000270
     0.5380      0.002870
     0.5385      0.002550
     0.5390      0.005180
     0.5395      0.005770
     0.5400      0.004250
     0.5405      0.002910
     0.5410      0.000890
     0.5415      0.005050
     0.5420      0.006500
     0.5425      0.006660
     0.5430      0.008830
     0.5435      0.004580
     0.5440      0.003590
     0.5445      0.006280
     0.5450      0.005060
     0.5455      0.005820
     0.5460      0.004730
     0.5465      0.006180
     0.5470      0.006750
     0.5475      0.006330
     0.5480      0.005090
     0.5485      0.005730
     0.5490      0.006150
     0.5495      0.003920
     0.5500      0.006250
     0.5505      0.005630
     0.5510      0.004160
     0.5515      0.006370
     0.5520      0.004280
     0.5525      0.002570
     0.5530      0.005130
     0.5535      0.002930
     0.5540      0.004600
     0.5545      0.002290
     0.5550      0.003790
     0.5555      0.001390
     0.5560      0.002980
     0.5565      0.003790
     0.5570      0.002160
     0.5575      0.002440
     0.5580      0.000350
     0.5585      0.000600
     0.5590      0.000810
     0.5595      0.000880
     0.5600      0.000670
     0.5605      0.000530
     0.5610      0.000930
     0.5615      0.002000
     0.5620      0.001500
     0.5625      0.003510
     0.5630      0.002020
     0.5635      0.001100
     0.5640      0.003830
     0.5645      0.002380
     0.5650      0.004350
     0.5655      0.004670
     0.5660      0.004250
     0.5665      0.004720
     0.5670      0.002400
     0.5675      0.003640
     0.5680      0.006090
     0.5685      0.006290
     0.5690      0.007200
     0.5695      0.006980
     0.5700      0.008490
     0.5705      0.008790
     0.5710      0.009840
     0.5715      0.006640
     0.5720      0.004730
     0.5725      0.004930
     0.5730      0.004910
     0.5735      0.006850
     0.5740      0.009070
     0.5745      0.012060
     0.5750      0.013610
     0.5755      0.013850
     0.5760      0.011900
     0.5765      0.009370
     0.5770      0.005640
     0.5775      0.001020
     0.5780      0.000000
     0.5785      0.000000
     0.5790      0.001660
     0.5795      0.006750
     0.5800      0.012790
     0.5805      0.018480
     0.5810      0.020380
     0.5815      0.021730
     0.5820      0.021790
     0.5825      0.019640
     0.5830      0.016340
     0.5835      0.013300
     0.5840      0.010420
     0.5845      0.008540
     0.5850      0.005740
     0.5855      0.007610
     0.5860      0.007300
     0.5865      0.007870
     0.5870      0.008810
     0.5875      0.008710
     0.5880      0.009640
     0.5885      0.008660
     0.5890      0.007750
     0.5895      0.007780
     0.5900      0.006900
     0.5905      0.006930
     0.5910      0.007080
     0.5915      0.006690
     0.5920      0.006340
     0.5925      0.007040
     0.5930      0.006260
     0.5935      0.007850
     0.5940      0.006000
     0.5945      0.005160
     0.5950      0.005620
     0.5955      0.005100
     0.5960      0.004960
     0.5965      0.004200
     0.5970      0.004640
     0.5975      0.004340
     0.5980      0.003550
     0.5985      0.003520
     0.5990      0.004610
     0.5995      0.003870
     0.6000      0.004080
     0.6005      0.003510
     0.6010      0.003170
     0.6015      0.002600
     0.6020      0.002930
     0.6025      0.002850
     0.6030      0.002370
     0.6035      0.002670
     0.6040      0.002240
     0.6045      0.001800
     0.6050      0.001600
     0.6055      0.001560
     0.6060      0.001670
     0.6065      0.001520
     0.6070      0.001160
     0.6075      0.001170
     0.6080      0.001240
     0.6085      0.000890
     0.6090      0.000730
     0.6095      0.000670
     0.6100      0.000490
     0.6105      0.000500
     0.6110      0.000040
     0.6115      0.000110
     0.6120      0.000000
     0.6125      0.000440
     0.6130      0.000000
     0.6135      0.000320
     0.6140      0.000000
     0.6145      0.000430
     0.6150      0.000390
     0.6155      0.000210
     0.6160      0.000100
     0.6165      0.000360
     0.6170      0.000570
     0.6175      0.000400
     0.6180      0.001170
     0.6185      0.000800
     0.6190      0.000360
     0.6195      0.001070
     0.6200      0.000630
     0.6205      0.000380
     0.6210      0.000600
     0.6215      0.001060
     0.6220      0.001450
     0.6225      0.001010
     0.6230      0.000900
     0.6235      0.000660
     0.6240      0.000800
     0.6245      0.000880
     0.6250      0.000760
     0.6255      0.000980
     0.6260      0.000920
     0.6265      0.000910
     0.6270      0.000660
     0.6275      0.000820
     0.6280      0.000590
     0.6285      0.000730
     0.6290      0.000120
     0.6295      0.000260
     0.6300      0.000000
     0.6305      0.000000
     0.6310      0.000000
     0.6315      0.000390
     0.6320      0.000340
     0.6325      0.001180
     0.6330      0.011400
     0.6335      0.000410
     0.6340      0.000210
     0.6345      0.000190
     0.6350      0.000030
     0.6355      0.000370
     0.6360      0.000550
     0.6365      0.000020
     0.6370      0.000230
     0.6375      0.000890
     0.6380      0.000110
     0.6385      0.000400
     0.6390      0.000410
     0.6395      0.000470
     0.6400      0.000510
     0.6405      0.000180
     0.6410      0.000000
     0.6415      0.000000
     0.6420      0.000000
     0.6425      0.000160
     0.6430      0.000010
     0.6435      0.000200
     0.6440      0.000170
     0.6445      0.000050
     0.6450      0.000490
     0.6455      0.000050
     0.6460      0.000360
     0.6465      0.000060
     0.6470      0.000180
     0.6475      0.000160
     0.6480      0.000490
     0.6485      0.000200
     0.6490      0.000340
     0.6495      0.000400
     0.6500      0.000410
     0.6505      0.000280
     0.6510      0.000210
     0.6515      0.000120
     0.6520      0.000250
     0.6525      0.000590
     0.6530      0.000310
     0.6535      0.000250
     0.6540      0.000400
     0.6545      0.000300
     0.6550      0.000530
     0.6555      0.000310
     0.6560      0.000590
     0.6565      0.000500
     0.6570      0.000420
     0.6575      0.000380
     0.6580      0.000250
     0.6585      0.000000
     0.6590      0.000100
     0.6595      0.000510
     0.6600      0.000200
     0.6605      0.000330
     0.6610      0.000240
     0.6615      0.000250
     0.6620      0.000250
     0.6625      0.000180
     0.6630      0.000320
     0.6635      0.000470
     0.6640      0.000550
     0.6645      0.000240
     0.6650      0.000180
     0.6655      0.000240
     0.6660      0.000340
     0.6665      0.000210
     0.6670      0.000120
     0.6675      0.000430
     0.6680      0.000140
     0.6685      0.000170
     0.6690      0.000360
     0.6695      0.000110
     0.6700      0.000200
     0.6705      0.000500
     0.6710      0.000020
     0.6715      0.000270
     0.6720      0.000000
     0.6725      0.000180
     0.6730      0.000000
     0.6735      0.000040
     0.6740      0.000260
     0.6745      0.000130
     0.6750      0.000350
     0.6755      0.000300
     0.6760      0.000510
     0.6765      0.000670
     0.6770      0.000520
     0.6775      0.000990
     0.6780      0.001370
     0.6785      0.001450
     0.6790      0.001400
     0.6795      0.000950
     0.6800      0.000500
     0.6805      0.000140
     0.6810      0.000000
     0.6815      0.000100
     0.6820      0.000000
     0.6825      0.000080
     0.6830      0.000000
     0.6835      0.000060
     0.6840      0.000170
     0.6845      0.000340
     0.6850      0.000100
     0.6855      0.000260
     0.6860      0.000240
     0.6865      0.000120
     0.6870      0.000220
     0.6875      0.000050
     0.6880      0.000260
     0.6885      0.000000
     0.6890      0.000140
     0.6895      0.000170
     0.6900      0.000230
     0.6905      0.000410
     0.6910      0.000150
     0.6915      0.000380
     0.6920      0.000170
     0.6925      0.000220
     0.6930      0.000170
     0.6935      0.000270
     0.6940      0.000150
     0.6945      0.000530
     0.6950      0.000080
     0.6955      0.000270
     0.6960      0.000100
     0.6965      0.000140
     0.6970      0.000130
     0.6975      0.000110
     0.6980      0.000160
     0.6985      0.000310
     0.6990      0.000210
     0.6995      0.000170
     0.7000      0.000190
     0.7005      0.000320
     0.7010      0.000220
     0.7015      0.000240
     0.7020      0.000070
     0.7025      0.000160
     0.7030      0.000210
     0.7035      0.000130
     0.7040      0.000110
     0.7045      0.000090
     0.7050      0.000130
     0.7055      0.000110
     0.7060      0.000230
     0.7065      0.000030
     0.7070      0.000220
     0.7075      0.000000
     0.7080      0.000100
     0.7085      0.000080
     0.7090      0.000050
     0.7095      0.000020
     0.7100      0.000140
     0.7105      0.000060
     0.7110      0.000010
     0.7115      0.000090
     0.7120      0.000070
     0.7125      0.000000
     0.7130      0.000000
     0.7135      0.000000
     0.7140      0.000080
     0.7145      0.000000
     0.7150      0.000000
     0.7155      0.000030
     0.7160      0.000180
     0.7165      0.000000
     0.7170      0.000010
     0.7175      0.000000
     0.7180      0.000090
     0.7185      0.000080
     0.7190      0.000110
     0.7195      0.000000
     0.7200      0.000010
     0.7205      0.000070
     0.7210      0.000070
     0.7215      0.000010
     0.7220      0.000120
     0.7225      0.000090
     0.7230      0.000050
     0.7235      0.000060
     0.7240      0.000040
     0.7245      0.000200
     0.7250      0.000030
     0.7255      0.000010
     0.7260      0.000030
     0.7265      0.000090
     0.7270      0.000000
     0.7275      0.000100
     0.7280      0.000000
     0.7285      0.000110
     0.7290      0.000000
     0.7295      0.000030
     0.7300      0.000060
     0.7305      0.000100
     0.7310      0.000150
     0.7315      0.000010
     0.7320      0.000130
     0.7325      0.000050
     0.7330      0.000180
     0.7335      0.000100
     0.7340      0.000080
     0.7345      0.000170
     0.7350      0.000140
     0.7355      0.000140
     0.7360      0.000000
     0.7365      0.000160
     0.7370      0.000110
     0.7375      0.000170
     0.7380      0.000050
     0.7385      0.000090
     0.7390      0.000110
     0.7395      0.000150
     0.7400      0.000110
     0.7405      0.000120
     0.7410      0.000150
     0.7415      0.000170
     0.7420      0.000190
     0.7425      0.000160
     0.7430      0.000130
     0.7435      0.000030
     0.7440      0.000040
     0.7445      0.000050
     0.7450      0.000030
     0.7455      0.000040
     0.7460      0.000010
     0.7465      0.000030
     0.7470      0.000100
     0.7475      0.000070
     0.7480      0.000060
     0.7485      0.000060
     0.7490      0.000000
     0.7495      0.000080
     0.7500      0.000020
     0.7505      0.000000
     0.7510      0.000000
     0.7515      0.000120
     0.7520      0.000170
     0.7525      0.000420
     0.7530      0.000440
     0.7535      0.000510
     0.7540      0.000290
     0.7545      0.000340
     0.7550      0.000310
     0.7555      0.000220
     0.7560      0.000160
     0.7565      0.000080
     0.7570      0.000100
     0.7575      0.000200
     0.7580      0.000300
     0.7585      0.000250
     0.7590      0.000400
     0.7595      0.000640
     0.7600      0.001320
     0.7605      0.002600
     0.7610      0.005980
     0.7615      0.007280
     0.7620      0.003360
     0.7625      0.001530
     0.7630      0.000830
     0.7635      0.000560
     0.7640      0.000270
     0.7645      0.000210
     0.7650      0.000150
     0.7655      0.000080
     0.7660      0.000130
     0.7665      0.000010
     0.7670      0.000000
     0.7675      0.000000
     0.7680      0.000030
     0.7685      0.000000
     0.7690      0.000000
     0.7695      0.000060
     0.7700      0.000060
     0.7705      0.000010
     0.7710      0.000010
     0.7715      0.000120
     0.7720      0.000000
     0.7725      0.000000
     0.7730      0.000000
     0.7735      0.000000
     0.7740      0.000180
     0.7745      0.000070
     0.7750      0.000240
     0.7755      0.000130
     0.7760      0.000180
     0.7765      0.000120
     0.7770      0.000110
     0.7775      0.000030
     0.7780      0.000040
     0.7785      0.000010
     0.7790      0.000020
     0.7795      0.000020
     0.7800      0.000060
     0.7805      0.000170
     0.7810      0.000030
     0.7815      0.000110
     0.7820      0.000110
     0.7825      0.000140
     0.7830      0.000120
     0.7835      0.000070
     0.7840      0.000160
     0.7845      0.000050
     0.7850      0.000040
     0.7855      0.000100
     0.7860      0.000080
     0.7865      0.000130
     0.7870      0.000010
     0.7875      0.000000
     0.7880      0.000020
     0.7885      0.000110
     0.7890      0.000080
     0.7895      0.000090
     0.7900      0.000170
     0.7905      0.000100
     0.7910      0.000080
     0.7915      0.000050
     0.7920      0.000070
     0.7925      0.000130
     0.7930      0.000020
     0.7935      0.000080
     0.7940      0.000080
     0.7945      0.000020
     0.7950      0.000010
     0.7955      0.000100
     0.7960      0.000060
     0.7965      0.000030
     0.7970      0.000090
     0.7975      0.000090
     0.7980      0.000060
     0.7985      0.000050
     0.7990      0.000050
     0.7995      0.000060
     0.8000      0.000130
     0.8005      0.000000
     0.8010      0.000050
     0.8015      0.000020
     0.8020      0.000000
     0.8025      0.000000
     0.8030      0.000000
     0.8035      0.000000
     0.8040      0.000120
     0.8045      0.000030
     0.8050      0.000120
     0.8055      0.000050
     0.8060      0.000010
     0.8065      0.000000
     0.8070      0.000070
     0.8075      0.000050
     0.8080      0.000040
     0.8085      0.000050
     0.8090      0.000010
     0.8095      0.000060
     0.8100      0.000000
     0.8105      0.000000
     0.8110      0.000010
     0.8115      0.000030
     0.8120      0.000000
     0.8125      0.000080
     0.8130      0.000050
     0.8135      0.000020
     0.8140      0.000000
     0.8145      0.000010
     0.8150      0.000060
     0.8155      0.000010
     0.8160      0.000050
     0.8165      0.000010
     0.8170      0.000040
     0.8175      0.000090
     0.8180      0.000010
     0.8185      0.000010
     0.8190      0.000010
     0.8195      0.000090
     0.8200      0.000010
     0.8205      0.000050
     0.8210      0.000020
     0.8215      0.000030
     0.8220      0.000050
     0.8225      0.000040
     0.8230      0.000000
     0.8235      0.000000
     0.8240      0.000040
     0.8245      0.000090
     0.8250      0.000010
     0.8255      0.000060
     0.8260      0.000020
     0.8265      0.000080
     0.8270      0.000060
     0.8275      0.000030
     0.8280      0.000000
     0.8285      0.000000
     0.8290      0.000050
     0.8295      0.000000
     0.8300      0.000090
     0.8305      0.000000
     0.8310      0.000000
     0.8315      0.000140
     0.8320      0.000110
     0.8325      0.000090
     0.8330      0.000200
     0.8335      0.000540
     0.8340      0.000720
     0.8345      0.000210
     0.8350      0.000060
     0.8355      0.000080
     0.8360      0.000090
     0.8365      0.000090
     0.8370      0.000060
     0.8375      0.000080
     0.8380      0.000010
     0.8385      0.000090
     0.8390      0.000030
     0.8395      0.000050
     0.8400      0.000020
     0.8405      0.000070
     0.8410      0.000050
     0.8415      0.000070
     0.8420      0.000090
     0.8425      0.000070
     0.8430      0.000070
     0.8435      0.000010
     0.8440      0.000110
     0.8445      0.000110
     0.8450      0.000160
     0.8455      0.000290
     0.8460      0.000870
     0.8465      0.001810
     0.8470      0.000570
     0.8475      0.000250
     0.8480      0.000100
     0.8485      0.000090
     0.8490      0.000090
     0.8495      0.000000
     0.8500      0.000040
     0.8505      0.000010
     0.8510      0.000040
     0.8515      0.000020
     0.8520      0.000000
     0.8525      0.000000
     0.8530      0.000090
     0.8535      0.000030
     0.8540      0.000010
     0.8545      0.000050
     0.8550      0.000030
     0.8555      0.000060
     0.8560      0.000070
     0.8565      0.000000
     0.8570      0.000050
     0.8575      0.000090
     0.8580      0.000130
     0.8585      0.000180
     0.8590      0.000380
     0.8595      0.001030
     0.8600      0.003100
     0.8605      0.001260
     0.8610      0.000360
     0.8615      0.000150
     0.8620      0.000100
     0.8625      0.000080
     0.8630      0.000020
     0.8635      0.000020
     0.8640      0.000010
     0.8645      0.000010
     0.8650      0.000000
     0.8655      0.000000
     0.8660      0.000000
     0.8665      0.000000
     0.8670      0.000000
     0.8675      0.000010
     0.8680      0.000000
     0.8685      0.000000
     0.8690      0.000040
     0.8695      0.000010
     0.8700      0.000030
     0.8705      0.000000
     0.8710      0.000000
     0.8715      0.000000
     0.8720      0.000060
     0.8725      0.000110
     0.8730      0.000100
     0.8735      0.000150
     0.8740      0.000090
     0.8745      0.000070
     0.8750      0.000060
     0.8755      0.000040
     0.8760      0.000020
     0.8765      0.000000
     0.8770      0.000020
     0.8775      0.000110
     0.8780      0.000000
     0.8785      0.000000
     0.8790      0.000000
     0.8795      0.000000
     0.8800      0.000000
     0.8805      0.000010
     0.8810      0.000020
     0.8815      0.000000
     0.8820      0.000000
     0.8825      0.000020
     0.8830      0.000040
     0.8835      0.000030
     0.8840      0.000040
     0.8845      0.000050
     0.8850      0.000060
     0.8855      0.000040
     0.8860      0.000070
     0.8865      0.000110
     0.8870      0.000000
     0.8875      0.000040
     0.8880      0.000000
     0.8885      0.000000
     0.8890      0.000000
     0.8895      0.000000
     0.8900      0.000000
     0.8905      0.000000
     0.8910      0.000000
     0.8915      0.000000
     0.8920      0.000040
     0.8925      0.000100
     0.8930      0.000190
     0.8935      0.000360
     0.8940      0.000710
     0.8945      0.001420
     0.8950      0.002390
     0.8955      0.003140
     0.8960      0.003400
     0.8965      0.003320
     0.8970      0.002600
     0.8975      0.001640
     0.8980      0.000860
     0.8985      0.000440
     0.8990      0.000220
     0.8995      0.000100
     0.9000      0.000010
     0.9005      0.000050
     0.9010      0.000000
     0.9015      0.000000
     0.9020      0.000000
     0.9025      0.000000
     0.9030      0.000000
     0.9035      0.000000
     0.9040      0.000000
     0.9045      0.000000
     0.9050      0.000000
     0.9055      0.000000
     0.9060      0.000000
     0.9065      0.000010
     0.9070      0.000020
     0.9075      0.000000
     0.9080      0.000010
     0.9085      0.000010
     0.9090      0.000020
     0.9095      0.000010
     0.9100      0.000000
     0.9105      0.000010
     0.9110      0.000000
     0.9115      0.000000
     0.9120      0.000000
     0.9125      0.000000
     0.9130      0.000000
     0.9135      0.000020
     0.9140      0.000000
     0.9145      0.000000
     0.9150      0.000000
     0.9155      0.000000
     0.9160      0.000000
     0.9165      0.000000
     0.9170      0.000000
     0.9175      0.000000
     0.9180      0.000000
     0.9185      0.000000
     0.9190      0.000000
     0.9195      0.000000
     0.9200      0.000010
     0.9205      0.000010
     0.9210      0.000030
     0.9215      0.000050
     0.9220      0.000010
     0.9225      0.000010
     0.9230      0.000050
     0.9235      0.000020
     0.9240      0.000010
     0.9245      0.000000
     0.9250      0.000000
     0.9255      0.000030
     0.9260      0.000020
     0.9265      0.000030
     0.9270      0.000030
     0.9275      0.000010
     0.9280      0.000020
     0.9285      0.000020
     0.9290      0.000010
     0.9295      0.000020
     0.9300      0.000000
     0.9305      0.000010
     0.9310      0.000020
     0.9315      0.000010
     0.9320      0.000010
     0.9325      0.000010
     0.9330      0.000000
     0.9335      0.000020
     0.9340      0.000010
     0.9345      0.000000
     0.9350      0.000050
     0.9355      0.000050
     0.9360      0.000040
     0.9365      0.000020
     0.9370      0.000010
     0.9375      0.000020
     0.9380      0.000010
     0.9385      0.000020
     0.9390      0.000030
     0.9395      0.000030
     0.9400      0.000020
     0.9405      0.000030
     0.9410      0.000050
     0.9415      0.000030
     0.9420      0.000030
     0.9425      0.000040
     0.9430      0.000020
     0.9435      0.000030
     0.9440      0.000020
     0.9445      0.000030
     0.9450      0.000010
     0.9455      0.000010
     0.9460      0.000030
     0.9465      0.000000
     0.9470      0.000030
     0.9475      0.000040
     0.9480      0.000020
     0.9485      0.000030
     0.9490      0.000030
     0.9495      0.000060
     0.9500      0.000010
     0.9505      0.000050
     0.9510      0.000020
     0.9515      0.000020
     0.9520      0.000030
     0.9525      0.000020
     0.9530      0.000010
     0.9535      0.000020
     0.9540      0.000000
     0.9545      0.000030
     0.9550      0.000030
     0.9555      0.000000
     0.9560      0.000030
     0.9565      0.000020
     0.9570      0.000010
     0.9575      0.000010
     0.9580      0.000010
     0.9585      0.000000
     0.9590      0.000020
     0.9595      0.000010
     0.9600      0.000030
     0.9605      0.000010
     0.9610      0.000030
     0.9615      0.000040
     0.9620      0.000010
     0.9625      0.000030
     0.9630      0.000010
     0.9635      0.000030
     0.9640      0.000040
     0.9645      0.000010
     0.9650      0.000010
     0.9655      0.000030
     0.9660      0.000020
     0.9665      0.000010
     0.9670      0.000030
     0.9675      0.000040
     0.9680      0.000020
     0.9685      0.000010
     0.9690      0.000030
     0.9695      0.000030
     0.9700      0.000050
     0.9705      0.000020
     0.9710      0.000020
     0.9715      0.000010
     0.9720      0.000050
     0.9725      0.000020
     0.9730      0.000020
     0.9735      0.000030
     0.9740      0.000020
     0.9745      0.000000
     0.9750      0.000030
     0.9755      0.000020
     0.9760      0.000000
     0.9765      0.000010
     0.9770      0.000020
     0.9775      0.000010
     0.9780      0.000000
     0.9785      0.000010
     0.9790      0.000000
     0.9795      0.000020
     0.9800      0.000000
     0.9805      0.000010
     0.9810      0.000000
     0.9815      0.000030
     0.9820      0.000000
     0.9825      0.000000
     0.9830      0.000010
     0.9835      0.000020
     0.9840      0.000000
     0.9845      0.000000
     0.9850      0.000000
     0.9855      0.000000
     0.9860      0.000020
     0.9865      0.000010
     0.9870      0.000010
     0.9875      0.000000
     0.9880      0.000000
     0.9885      0.000000
     0.9890      0.000000
     0.9895      0.000000
     0.9900      0.000000
     0.9905      0.000000
     0.9910      0.000000
     0.9915      0.000000
     0.9920      0.000000
     0.9925      0.000000
     0.9930      0.000000
     0.9935      0.000000
     0.9940      0.000000
     0.9945      0.000000
     0.9950      0.000000
     0.9955      0.000010
     0.9960      0.000000
     0.9965      0.000000
     0.9970      0.000000
     0.9975      0.000000
     0.9980      0.000000
     0.9985      0.000000
     0.9990      0.000000
     0.9995      0.000010
     1.0000      0.000010
     1.0005      0.000000
     1.0010      0.000000
     1.0015      0.000000
     1.0020      0.000010
     1.0025      0.000020
     1.0030      0.000050
     1.0035      0.000000
     1.0040      0.000010
     1.0045      0.000040
     1.0050      0.000040
     1.0055      0.000030
     1.0060      0.000020
     1.0065      0.000050
     1.0070      0.000040
     1.0075      0.000030
     1.0080      0.000030
     1.0085      0.000040
     1.0090      0.000030
     1.0095      0.000020
     1.0100      0.000010
     1.0105      0.000050
     1.0110      0.000020
     1.0115      0.000040
     1.0120      0.000030
     1.0125      0.000030
     1.0130      0.000040
     1.0135      0.000030
     1.0140      0.000040
     1.0145      0.000030
     1.0150      0.000050
     1.0155      0.000020
     1.0160      0.000030
     1.0165      0.000030
     1.0170      0.000040
     1.0175      0.000040
     1.0180      0.000020
     1.0185      0.000050
     1.0190      0.000040
     1.0195      0.000040
     1.0200      0.000030
     1.0205      0.000050
     1.0210      0.000050
     1.0215      0.000040
     1.0220      0.000030
     1.0225      0.000050
     1.0230      0.000060
     1.0235      0.000020
     1.0240      0.000030
     1.0245      0.000020
     1.0250      0.000020
     1.0255      0.000010
     1.0260      0.000060
     1.0265      0.000050
     1.0270      0.000030
     1.0275      0.000050
     1.0280      0.000030
     1.0285      0.000020
     1.0290      0.000060
     1.0295      0.000040
     1.0300      0.000030
     1.0305      0.000020
     1.0310      0.000050
     1.0315      0.000050
     1.0320      0.000070
     1.0325      0.000040
     1.0330      0.000030
     1.0335      0.000030
     1.0340      0.000050
     1.0345      0.000040
     1.0350      0.000040
     1.0355      0.000070
     1.0360      0.000060
     1.0365      0.000050
     1.0370      0.000050
     1.0375      0.000060
     1.0380      0.000050
     1.0385      0.000070
     1.0390      0.000050
     1.0395      0.000060
     1.0400      0.000060
     1.0405      0.000080
     1.0410      0.000080
     1.0415      0.000030
     1.0420      0.000060
     1.0425      0.000040
     1.0430      0.000010
     1.0435      0.000020
     1.0440      0.000000
     1.0445      0.000010
     1.0450      0.000000
     1.0455      0.000000
     1.0460      0.000000
     1.0465      0.000000
     1.0470      0.000000
     1.0475      0.000000
     1.0480      0.000000
     1.0485      0.000000
     1.0490      0.000000
     1.0495      0.000000
     1.0500      0.000000
     1.0505      0.000000
     1.0510      0.000000
     1.0515      0.000000
     1.0520      0.000000
     1.0525      0.000000
     1.0530      0.000000
     1.0535      0.000000
     1.0540      0.000000
     1.0545      0.000000
     1.0550      0.000000
     1.0555      0.000000
     1.0560      0.000000
     1.0565      0.000000
     1.0570      0.000000
     1.0575      0.000010
     1.0580      0.000000
     1.0585      0.000000
     1.0590      0.000000
     1.0595      0.000000
     1.0600      0.000000
     1.0605      0.000000
     1.0610      0.000000
     1.0615      0.000000
     1.0620      0.000000
     1.0625      0.000000
     1.0630      0.000000
     1.0635      0.000000
     1.0640      0.000000
     1.0645      0.000000
     1.0650      0.000010
     1.0655      0.000000
     1.0660      0.000000
     1.0665      0.000010
     1.0670      0.000050
     1.0675      0.000030
     1.0680      0.000010
     1.0685      0.000000
     1.0690      0.000010
     1.0695      0.000020
     1.0700      0.000010
     1.0705      0.000000
     1.0710      0.000000
     1.0715      0.000030
     1.0720      0.000000
     1.0725      0.000000
     1.0730      0.000010
     1.0735      0.000020
     1.0740      0.000020
     1.0745      0.000020
     1.0750      0.000030
     1.0755      0.000010
     1.0760      0.000060
     1.0765      0.000110
     1.0770      0.000050
     1.0775      0.000060
     1.0780      0.000070
     1.0785      0.000030
     1.0790      0.000070
     1.0795      0.000040
     1.0800      0.000050
     1.0805      0.000100
     1.0810      0.000060
     1.0815      0.000040
     1.0820      0.000080
     1.0825      0.000090
     1.0830      0.000160
     1.0835      0.000120
     1.0840      0.000180
     1.0845      0.000210
     1.0850      0.000200
     1.0855      0.000160
     1.0860      0.000250
     1.0865      0.000180
     1.0870      0.000240
     1.0875      0.000200
     1.0880      0.000160
     1.0885      0.000180
     1.0890      0.000190
     1.0895      0.000200
     1.0900      0.000200
     1.0905      0.000190
     1.0910      0.000260
     1.0915      0.000160
     1.0920      0.000200
     1.0925      0.000210
     1.0930      0.000310
     1.0935      0.000260
     1.0940      0.000280
     1.0945      0.000290
     1.0950      0.000260
     1.0955      0.000320
     1.0960      0.000320
     1.0965      0.000270
     1.0970      0.000350
     1.0975      0.000330
     1.0980      0.000360
     1.0985      0.000320
     1.0990      0.000330
     1.0995      0.000370
     1.1000      0.000410
     1.1005      0.000290
     1.1010      0.000350
     1.1015      0.000380
     1.1020      0.000370
     1.1025      0.000440
     1.1030      0.000380
     1.1035      0.000380
     1.1040      0.000390
     1.1045      0.000430
     1.1050      0.000350
     1.1055      0.000450
     1.1060      0.000350
     1.1065      0.000360
     1.1070      0.000470
     1.1075      0.000420
     1.1080      0.000430
     1.1085      0.000520
     1.1090      0.000430
     1.1095      0.000500
     1.1100      0.000450
     1.1105      0.000470
     1.1110      0.000530
     1.1115      0.000000
     1.1120      0.001440
     1.1125      0.000000
     1.1130      0.000000
     1.1135      0.002050
     1.1140      0.000050
     1.1145      0.000000
     1.1150      0.000000
     1.1155      0.000000
     1.1160      0.000000
     1.1165      0.000000
     1.1170      0.000000
     1.1175      0.000000
     1.1180      0.000000
     1.1185      0.000000
     1.1190      0.000000
     1.1195      0.000000
     1.1200      0.000000
     1.1205      0.000000
     1.1210      0.000000
     1.1215      0.000000
     1.1220      0.000000
     1.1225      0.000000
     1.1230      0.000000
     1.1235      0.000000
     1.1240      0.000000
     1.1245      0.000000
     1.1250      0.000000
     1.1255      0.000000
     1.1260      0.000000
     1.1265      0.000000
     1.1270      0.000000
     1.1275      0.000000
     1.1280      0.000000
     1.1285      0.000000
     1.1290      0.000000
     1.1295      0.000000
     1.1300      0.000000
     1.1305      0.000000
     1.1310      0.000000
     1.1315      0.000000
     1.1320      0.000000
     1.1325      0.000000
     1.1330      0.000000
     1.1335      0.000000
     1.1340      0.000000
     1.1345      0.000000
     1.1350      0.000000
     1.1355      0.000000
     1.1360      0.000000
     1.1365      0.000000
     1.1370      0.000000
     1.1375      0.000000
     1.1380      0.000000
     1.1385      0.000000
     1.1390      0.000000
     1.1395      0.000000
     1.1400      0.000000
     1.1405      0.000000
     1.1410      0.000000
     1.1415      0.000000
     1.1420      0.000000
     1.1425      0.000000
     1.1430      0.000000
     1.1435      0.000000
     1.1440      0.000000
     1.1445      0.000000
     1.1450      0.000000
     1.1455      0.000000
     1.1460      0.000000
     1.1465      0.000000
     1.1470      0.000000
     1.1475      0.000000
     1.1480      0.000000
     1.1485      0.000000
     1.1490      0.000000
     1.1495      0.001960
     1.1500      0.003500
     1.1505      0.008810
     1.1510      0.012620
     1.1515      0.018390
     1.1520      0.025930
     1.1525      0.035620
     1.1530      0.048450
     1.1535      0.063500
     1.1540      0.085040
     1.1545      0.110070
     1.1550      0.141350
     1.1555      0.181350
     1.1560      0.229070
     1.1565      0.290120
     1.1570      0.357230
     1.1575      0.435370
     1.1580      0.520020
     1.1585      0.601600
     1.1590      0.684490
     1.1595      0.759940
     1.1600      0.814210
     1.1605      0.866680
     1.1610      0.903360
     1.1615      0.929230
     1.1620      0.944190
     1.1625      0.951490
     1.1630      0.960500
     1.1635      0.960690
     1.1640      0.959920
     1.1645      0.961440
     1.1650      0.959860
     1.1655      0.961870
     1.1660      0.961200
     1.1665      0.962020
     1.1670      0.962690
     1.1675      0.962100
     1.1680      0.965060
     1.1685      0.966040
     1.1690      0.967640
     1.1695      0.969640
     1.1700      0.971400
     1.1705      0.972960
     1.1710      0.974960
     1.1715      0.973310
     1.1720      0.975510
     1.1725      0.973800
     1.1730      0.976480
     1.1735      0.976740
     1.1740      0.977260
     1.1745      0.977720
     1.1750      0.978990
     1.1755      0.975770
     1.1760      0.977080
     1.1765      0.976640
     1.1770      0.977610
     1.1775      0.977010
     1.1780      0.978800
     1.1785      0.977430
     1.1790      0.978540
     1.1795      0.978650
     1.1800      0.975370
     1.1805      0.980560
     1.1810      0.976160
     1.1815      0.976100
     1.1820      0.977990
     1.1825      0.975620
     1.1830      0.974740
     1.1835      0.974600
     1.1840      0.976940
     1.1845      0.974450
     1.1850      0.974030
     1.1855      0.974260
     1.1860      0.972160
     1.1865      0.975490
     1.1870      0.974950
     1.1875      0.975880
     1.1880      0.975070
     1.1885      0.977380
     1.1890      0.977700
     1.1895      0.977270
     1.1900      0.974570
     1.1905      0.976100
     1.1910      0.976790
     1.1915      0.977700
     1.1920      0.977770
     1.1925      0.979390
     1.1930      0.979280
     1.1935      0.977180
     1.1940      0.980980
     1.1945      0.980120
     1.1950      0.981850
     1.1955      0.983470
     1.1960      0.985420
     1.1965      0.984150
     1.1970      0.985400
     1.1975      0.985150
     1.1980      0.987940
     1.1985      0.987640
     1.1990      0.986910
     1.1995      0.988310
     1.2000      0.990010
     1.2005      0.990910
     1.2010      0.992600
     1.2015      0.994580
     1.2020      0.996450
     1.2025      0.995300
     1.2030      0.997020
     1.2035      0.998000
     1.2040      0.996940
     1.2045      0.999980
     1.2050      0.996990
     1.2055      0.998410
     1.2060      0.999400
     1.2065      1.000420
     1.2070      0.999140
     1.2075      0.997840
     1.2080      1.000260
     1.2085      1.000020
     1.2090      1.000880
     1.2095      1.000840
     1.2100      0.996490
     1.2105      1.000110
     1.2110      0.999420
     1.2115      1.000810
     1.2120      0.998630
     1.2125      0.997460
     1.2130      0.998060
     1.2135      0.996600
     1.2140      0.996900
     1.2145      0.998470
     1.2150      0.997050
     1.2155      0.996440
     1.2160      0.994980
     1.2165      0.993930
     1.2170      0.995820
     1.2175      0.996140
     1.2180      0.995830
     1.2185      0.994540
     1.2190      0.995130
     1.2195      0.995300
     1.2200      0.995700
     1.2205      0.994340
     1.2210      0.995600
     1.2215      0.995610
     1.2220      0.992430
     1.2225      0.995100
     1.2230      0.993470
     1.2235      0.992920
     1.2240      0.991540
     1.2245      0.993060
     1.2250      0.992060
     1.2255      0.992210
     1.2260      0.991880
     1.2265      0.993510
     1.2270      0.991660
     1.2275      0.989110
     1.2280      0.990660
     1.2285      0.991350
     1.2290      0.990070
     1.2295      0.992320
     1.2300      0.986170
     1.2305      0.988680
     1.2310      0.988460
     1.2315      0.987830
     1.2320      0.985040
     1.2325      0.987990
     1.2330      0.987860
     1.2335      0.988610
     1.2340      0.987210
     1.2345      0.986500
     1.2350      0.986250
     1.2355      0.987700
     1.2360      0.988980
     1.2365      0.988610
     1.2370      0.985450
     1.2375      0.987760
     1.2380      0.989460
     1.2385      0.987480
     1.2390      0.986290
     1.2395      0.984390
     1.2400      0.987250
     1.2405      0.986980
     1.2410      0.987050
     1.2415      0.987880
     1.2420      0.987200
     1.2425      0.988360
     1.2430      0.988450
     1.2435      0.990980
     1.2440      0.989620
     1.2445      0.989380
     1.2450      0.989900
     1.2455      0.993410
     1.2460      0.989730
     1.2465      0.991710
     1.2470      0.989210
     1.2475      0.991850
     1.2480      0.990340
     1.2485      0.989140
     1.2490      0.992990
     1.2495      0.991950
     1.2500      0.992060
     1.2505      0.988920
     1.2510      0.991220
     1.2515      0.991710
     1.2520      0.990240
     1.2525      0.991420
     1.2530      0.991750
     1.2535      0.992180
     1.2540      0.992620
     1.2545      0.993140
     1.2550      0.991990
     1.2555      0.991760
     1.2560      0.991180
     1.2565      0.992730
     1.2570      0.991190
     1.2575      0.990700
     1.2580      0.991550
     1.2585      0.989490
     1.2590      0.990840
     1.2595      0.992740
     1.2600      0.990090
     1.2605      0.990960
     1.2610      0.990980
     1.2615      0.989800
     1.2620      0.989990
     1.2625      0.991830
     1.2630      0.991230
     1.2635      0.989860
     1.2640      0.986900
     1.2645      0.990030
     1.2650      0.987360
     1.2655      0.988050
     1.2660      0.988190
     1.2665      0.990730
     1.2670      0.989860
     1.2675      0.990470
     1.2680      0.989360
     1.2685      0.989420
     1.2690      0.990590
     1.2695      0.990770
     1.2700      0.988810
     1.2705      0.991740
     1.2710      0.992680
     1.2715      0.991960
     1.2720      0.992340
     1.2725      0.994630
     1.2730      0.994100
     1.2735      0.996550
     1.2740      0.994770
     1.2745      0.997150
     1.2750      0.996830
     1.2755      0.997740
     1.2760      0.997910
     1.2765      1.000160
     1.2770      0.998840
     1.2775      1.000540
     1.2780      1.000590
     1.2785      1.002310
     1.2790      1.002380
     1.2795      1.001300
     1.2800      1.003860
     1.2805      1.001130
     1.2810      1.002230
     1.2815      1.000930
     1.2820      1.000670
     1.2825      1.002100
     1.2830      1.002100
     1.2835      1.001380
     1.2840      0.999800
     1.2845      1.000540
     1.2850      1.000210
     1.2855      0.998900
     1.2860      0.999360
     1.2865      0.997810
     1.2870      0.998290
     1.2875      0.996620
     1.2880      0.996600
     1.2885      0.996130
     1.2890      0.996900
     1.2895      0.997130
     1.2900      0.996440
     1.2905      0.996240
     1.2910      0.994960
     1.2915      0.995210
     1.2920      0.995460
     1.2925      0.994030
     1.2930      0.997510
     1.2935      0.998600
     1.2940      0.998680
     1.2945      0.998150
     1.2950      1.000540
     1.2955      0.999580
     1.2960      1.001050
     1.2965      1.004190
     1.2970      1.005960
     1.2975      1.007710
     1.2980      1.008570
     1.2985      1.010160
     1.2990      1.011020
     1.2995      1.011620
     1.3000      1.011480
     1.3005      1.016260
     1.3010      1.013850
     1.3015      1.016250
     1.3020      1.014370
     1.3025      1.015400
     1.3030      1.015830
     1.3035      1.015920
     1.3040      1.016160
     1.3045      1.014740
     1.3050      1.013580
     1.3055      1.010140
     1.3060      1.010430
     1.3065      1.008770
     1.3070      1.006690
     1.3075      1.004840
     1.3080      1.003720
     1.3085      1.000840
     1.3090      0.999830
     1.3095      0.997790
     1.3100      0.996050
     1.3105      0.993470
     1.3110      0.991740
     1.3115      0.990370
     1.3120      0.988320
     1.3125      0.989120
     1.3130      0.985780
     1.3135      0.987970
     1.3140      0.985200
     1.3145      0.984680
     1.3150      0.983590
     1.3155      0.982960
     1.3160      0.983090
     1.3165      0.984910
     1.3170      0.986190
     1.3175      0.986320
     1.3180      0.988270
     1.3185      0.988960
     1.3190      0.988910
     1.3195      0.990490
     1.3200      0.993640
     1.3205      0.997440
     1.3210      0.997250
     1.3215      0.997270
     1.3220      0.999560
     1.3225      1.003900
     1.3230      1.005160
     1.3235      1.006300
     1.3240      1.008080
     1.3245      1.010040
     1.3250      1.009470
     1.3255      1.012430
     1.3260      1.011760
     1.3265      1.012830
     1.3270      1.010650
     1.3275      1.011880
     1.3280      1.011440
     1.3285      1.008500
     1.3290      1.012160
     1.3295      1.008800
     1.3300      1.006250
     1.3305      1.002960
     1.3310      1.002810
     1.3315      1.000800
     1.3320      0.996010
     1.3325      0.994790
     1.3330      0.992950
     1.3335      0.988640
     1.3340      0.987130
     1.3345      0.983100
     1.3350      0.981410
     1.3355      0.975750
     1.3360      0.974390
     1.3365      0.971640
     1.3370      0.969410
     1.3375      0.967280
     1.3380      0.963910
     1.3385      0.960540
     1.3390      0.957660
     1.3395      0.953760
     1.3400      0.950670
     1.3405      0.949350
     1.3410      0.947550
     1.3415      0.944220
     1.3420      0.941100
     1.3425      0.940090
     1.3430      0.937290
     1.3435      0.935840
     1.3440      0.936700
     1.3445      0.933600
     1.3450      0.932790
     1.3455      0.931400
     1.3460      0.930950
     1.3465      0.928230
     1.3470      0.925710
     1.3475      0.917650
     1.3480      0.906290
     1.3485      0.892000
     1.3490      0.869390
     1.3495      0.841180
     1.3500      0.798000
     1.3505      0.747140
     1.3510      0.689160
     1.3515      0.621990
     1.3520      0.551040
     1.3525      0.479580
     1.3530      0.412170
     1.3535      0.348110
     1.3540      0.292840
     1.3545      0.242710
     1.3550      0.201470
     1.3555      0.166020
     1.3560      0.139240
     1.3565      0.114170
     1.3570      0.095230
     1.3575      0.081170
     1.3580      0.067830
     1.3585      0.057690
     1.3590      0.050070
     1.3595      0.044130
     1.3600      0.038730
     1.3605      0.034360
     1.3610      0.029710
     1.3615      0.026910
     1.3620      0.024240
     1.3625      0.023240
     1.3630      0.021400
     1.3635      0.019990
     1.3640      0.018870
     1.3645      0.018240
     1.3650      0.018210
     1.3655      0.015430
     1.3660      0.015520
     1.3665      0.014880
     1.3670      0.013790
     1.3675      0.013500
     1.3680      0.013560
     1.3685      0.014220
     1.3690      0.014050
     1.3695      0.012900
     1.3700      0.013200
     1.3705      0.012630
     1.3710      0.012670
     1.3715      0.012770
     1.3720      0.013190
     1.3725      0.011780
     1.3730      0.011400
     1.3735      0.010650
     1.3740      0.011940
     1.3745      0.010970
     1.3750      0.012220
     1.3755      0.011990
     1.3760      0.012340
     1.3765      0.010850
     1.3770      0.011440
     1.3775      0.010680
     1.3780      0.011510
     1.3785      0.011000
     1.3790      0.010880
     1.3795      0.012140
     1.3800      0.011560
     1.3805      0.010700
     1.3810      0.011020
     1.3815      0.010660
     1.3820      0.011050
     1.3825      0.011470
     1.3830      0.010520
     1.3835      0.011110
     1.3840      0.011040
     1.3845      0.011330
     1.3850      0.011400
     1.3855      0.013430
     1.3860      0.011040
     1.3865      0.011310
     1.3870      0.010380
     1.3875      0.011180
     1.3880      0.011320
     1.3885      0.010860
     1.3890      0.011710
     1.3895      0.010970
     1.3900      0.010990
     1.3905      0.010750
     1.3910      0.010990
     1.3915      0.011360
     1.3920      0.011020
     1.3925      0.010800
     1.3930      0.011340
     1.3935      0.011110
     1.3940      0.010730
     1.3945      0.011950
     1.3950      0.011050
     1.3955      0.011030
     1.3960      0.010610
     1.3965      0.010280
     1.3970      0.009650
     1.3975      0.009420
     1.3980      0.011460
     1.3985      0.010740
     1.3990      0.009610
     1.3995      0.009750
     1.4000      0.009900
     1.4005      0.010610
     1.4010      0.010210
     1.4015      0.011110
     1.4020      0.010350
     1.4025      0.010170
     1.4030      0.009770
     1.4035      0.009080
     1.4040      0.010380
     1.4045      0.008800
     1.4050      0.009730
     1.4055      0.010040
     1.4060      0.010120
     1.4065      0.010910
     1.4070      0.010090
     1.4075      0.009610
     1.4080      0.009370
     1.4085      0.009270
     1.4090      0.009950
     1.4095      0.009280
     1.4100      0.008820
     1.4105      0.007990
     1.4110      0.007450
     1.4115      0.007840
     1.4120      0.006700
     1.4125      0.006510
     1.4130      0.004110
     1.4135      0.003700
     1.4140      0.003690
     1.4145      0.003020
     1.4150      0.002200
     1.4155      0.001800
     1.4160      0.002250
     1.4165      0.000500
     1.4170      0.000320
     1.4175      0.001090
     1.4180      0.001450
     1.4185      0.000000
     1.4190      0.000000
     1.4195      0.000420
     1.4200      0.000200
     1.4205      0.000750
     1.4210      0.000090
     1.4215      0.000500
     1.4220      0.000150
     1.4225      0.000030
     1.4230      0.000000
     1.4235      0.000030
     1.4240      0.000740
     1.4245      0.000400
     1.4250      0.000280
     1.4255      0.000080
     1.4260      0.000000
     1.4265      0.000000
     1.4270      0.000040
     1.4275      0.000000
     1.4280      0.000650
     1.4285      0.000000
     1.4290      0.000000
     1.4295      0.000080
     1.4300      0.000000
     1.4305      0.000000
     1.4310      0.000000
     1.4315      0.000330
     1.4320      0.000000
     1.4325      0.000000
     1.4330      0.000000
     1.4335      0.000000
     1.4340      0.000020
     1.4345      0.000690
     1.4350      0.000300
     1.4355      0.000110
     1.4360      0.000000
     1.4365      0.000210
     1.4370      0.000340
     1.4375      0.000060
     1.4380      0.000070
     1.4385      0.000440
     1.4390      0.000000
     1.4395      0.000000
     1.4400      0.000120
     1.4405      0.000080
     1.4410      0.000030
     1.4415      0.000060
     1.4420      0.000880
     1.4425      0.000620
     1.4430      0.000390
     1.4435      0.000070
     1.4440      0.000010
     1.4445      0.000000
     1.4450      0.000000
     1.4455      0.000000
     1.4460      0.000000
     1.4465      0.000000
     1.4470      0.000010
     1.4475      0.000130
     1.4480      0.000010
     1.4485      0.000890
     1.4490      0.000250
     1.4495      0.000000
     1.4500      0.000000
     1.4505      0.000140
     1.4510      0.000530
     1.4515      0.000360
     1.4520      0.000630
     1.4525      0.000580
     1.4530      0.000930
     1.4535      0.000000
     1.4540      0.000650
     1.4545      0.000000
     1.4550      0.000000
     1.4555      0.000030
     1.4560      0.000040
     1.4565      0.000720
     1.4570      0.000160
     1.4575      0.000200
     1.4580      0.000000
     1.4585      0.000020
     1.4590      0.000000
     1.4595      0.000070
     1.4600      0.000000
     1.4605      0.000000
     1.4610      0.000000
     1.4615      0.000000
     1.4620      0.000000
     1.4625      0.000000
     1.4630      0.000000
     1.4635      0.000850
     1.4640      0.000000
     1.4645      0.000000
     1.4650      0.000000
     1.4655      0.000240
     1.4660      0.000610
     1.4665      0.000000
     1.4670      0.000000
     1.4675      0.000000
     1.4680      0.000000
     1.4685      0.000000
     1.4690      0.000000
     1.4695      0.000310
     1.4700      0.000020
     1.4705      0.000280
     1.4710      0.001510
     1.4715      0.001200
     1.4720      0.000280
     1.4725      0.000000
     1.4730      0.000000
     1.4735      0.000000
     1.4740      0.000730
     1.4745      0.000810
     1.4750      0.000000
     1.4755      0.000230
     1.4760      0.000010
     1.4765      0.000420
     1.4770      0.000610
     1.4775      0.001270
     1.4780      0.000000
     1.4785      0.000020
     1.4790      0.000000
     1.4795      0.000000
     1.4800      0.000230
     1.4805      0.000420
     1.4810      0.000360
     1.4815      0.000320
     1.4820      0.000090
     1.4825      0.000420
     1.4830      0.000880
     1.4835      0.001190
     1.4840      0.000200
     1.4845      0.000260
     1.4850      0.000000
     1.4855      0.000000
     1.4860      0.000000
     1.4865      0.000040
     1.4870      0.000030
     1.4875      0.001400
     1.4880      0.000000
     1.4885      0.000190
     1.4890      0.000000
     1.4895      0.000080
     1.4900      0.000020
     1.4905      0.000000
     1.4910      0.000000
     1.4915      0.000000
     1.4920      0.000030
     1.4925      0.000480
     1.4930      0.000010
     1.4935      0.000340
     1.4940      0.000510
     1.4945      0.000310
     1.4950      0.000000
     1.4955      0.000020
     1.4960      0.000000
     1.4965      0.000000
     1.4970      0.000100
     1.4975      0.000010
     1.4980      0.000000
     1.4985      0.000160
     1.4990      0.000000
     1.4995      0.000000
     1.5000      0.000000
     1.5005      0.000000
     1.5010      0.000460
     1.5015      0.000000
     1.5020      0.000170
     1.5025      0.000010
     1.5030      0.000140
     1.5035      0.000000
     1.5040      0.000000
     1.5045      0.000000
     1.5050      0.000000
     1.5055      0.000000
     1.5060      0.000000
     1.5065      0.000050
     1.5070      0.000000
     1.5075      0.000000
     1.5080      0.000000
     1.5085      0.000380
     1.5090      0.000000
     1.5095      0.000000
     1.5100      0.000000
     1.5105      0.000090
     1.5110      0.000140
     1.5115      0.000000
     1.5120      0.000000
     1.5125      0.000000
     1.5130      0.000010
     1.5135      0.000000
     1.5140      0.000000
     1.5145      0.000000
     1.5150      0.000000
     1.5155      0.000000
     1.5160      0.000140
     1.5165      0.000000
     1.5170      0.000000
     1.5175      0.000300
     1.5180      0.000000
     1.5185      0.000000
     1.5190      0.000000
     1.5195      0.000000
     1.5200      0.000000
     1.5205      0.000000
     1.5210      0.000000
     1.5215      0.000000
     1.5220      0.000000
     1.5225      0.000000
     1.5230      0.000000
     1.5235      0.000000
     1.5240      0.000050
     1.5245      0.000490
     1.5250      0.000140
     1.5255      0.000180
     1.5260      0.000000
     1.5265      0.000000
     1.5270      0.000000
     1.5275      0.000560
     1.5280      0.000000
     1.5285      0.000130
     1.5290      0.000010
     1.5295      0.000000
     1.5300      0.000000
     1.5305      0.000000
     1.5310      0.000000
     1.5315      0.000000
     1.5320      0.000300
     1.5325      0.000040
     1.5330      0.000000
     1.5335      0.000000
     1.5340      0.000000
     1.5345      0.000000
     1.5350      0.000000
     1.5355      0.000000
     1.5360      0.000000
     1.5365      0.000280
     1.5370      0.000000
     1.5375      0.000000
     1.5380      0.000000
     1.5385      0.000000
     1.5390      0.000000
     1.5395      0.000000
     1.5400      0.000370
     1.5405      0.000000
     1.5410      0.000470
     1.5415      0.000120
     1.5420      0.000000
     1.5425      0.000000
     1.5430      0.000020
     1.5435      0.000000
     1.5440      0.000000
     1.5445      0.000000
     1.5450      0.000000
     1.5455      0.000000
     1.5460      0.000000
     1.5465      0.000000
     1.5470      0.000000
     1.5475      0.000000
     1.5480      0.000000
     1.5485      0.000000
     1.5490      0.000020
     1.5495      0.000050
     1.5500      0.000100
     1.5505      0.000380
     1.5510      0.000110
     1.5515      0.000360
     1.5520      0.000460
     1.5525      0.000540
     1.5530      0.000000
     1.5535      0.000000
     1.5540      0.000000
     1.5545      0.000000
     1.5550      0.000000
     1.5555      0.000000
     1.5560      0.000000
     1.5565      0.000000
     1.5570      0.000310
     1.5575      0.000000
     1.5580      0.000000
     1.5585      0.000000
     1.5590      0.000000
     1.5595      0.000000
     1.5600      0.000000
     1.5605      0.000390
     1.5610      0.000050
     1.5615      0.000000
     1.5620      0.000320
     1.5625      0.000000
     1.5630      0.000000
     1.5635      0.000000
     1.5640      0.000000
     1.5645      0.000000
     1.5650      0.000000
     1.5655      0.000000
     1.5660      0.000000
     1.5665      0.000100
     1.5670      0.000000
     1.5675      0.000210
     1.5680      0.000000
     1.5685      0.000000
     1.5690      0.000000
     1.5695      0.000000
     1.5700      0.000430
     1.5705      0.000490
     1.5710      0.000000
     1.5715      0.000000
     1.5720      0.000010
     1.5725      0.000000
     1.5730      0.000150
     1.5735      0.000040
     1.5740      0.000000
     1.5745      0.000000
     1.5750      0.000000
     1.5755      0.000210
     1.5760      0.000360
     1.5765      0.000000
     1.5770      0.000000
     1.5775      0.000000
     1.5780      0.000000
     1.5785      0.000000
     1.5790      0.000000
     1.5795      0.000000
     1.5800      0.000000
     1.5805      0.000080
     1.5810      0.001070
     1.5815      0.000000
     1.5820      0.000000
     1.5825      0.000000
     1.5830      0.000000
     1.5835      0.000000
     1.5840      0.000000
     1.5845      0.000000
     1.5850      0.000000
     1.5855      0.000040
     1.5860      0.000090
     1.5865      0.000000
     1.5870      0.000000
     1.5875      0.000000
     1.5880      0.000000
     1.5885      0.000000
     1.5890      0.000180
     1.5895      0.000110
     1.5900      0.000300
     1.5905      0.000000
     1.5910      0.000230
     1.5915      0.000020
     1.5920      0.000000
     1.5925      0.000450
     1.5930      0.000380
     1.5935      0.000000
     1.5940      0.000000
     1.5945      0.000000
     1.5950      0.000000
     1.5955      0.000010
     1.5960      0.000520
     1.5965      0.000000
     1.5970      0.000000
     1.5975      0.000000
     1.5980      0.000000
     1.5985      0.000000
     1.5990      0.000000
     1.5995      0.000190
     1.6000      0.000000
     1.6005      0.000000
     1.6010      0.000000
     1.6015      0.000000
     1.6020      0.000000
     1.6025      0.000000
     1.6030      0.000230
     1.6035      0.000180
     1.6040      0.000200
     1.6045      0.000090
     1.6050      0.000000
     1.6055      0.000000
     1.6060      0.000000
     1.6065      0.000000
     1.6070      0.000000
     1.6075      0.000000
     1.6080      0.000000
     1.6085      0.000000
     1.6090      0.000120
     1.6095      0.000040
     1.6100      0.000000
     1.6105      0.000390
     1.6110      0.000020
     1.6115      0.000360
     1.6120      0.000340
     1.6125      0.000320
     1.6130      0.000000
     1.6135      0.000000
     1.6140      0.000000
     1.6145      0.000000
     1.6150      0.000000
     1.6155      0.000000
     1.6160      0.000000
     1.6165      0.000000
     1.6170      0.000110
     1.6175      0.000220
     1.6180      0.000180
     1.6185      0.000000
     1.6190      0.000000
     1.6195      0.000000
     1.6200      0.000020
     1.6205      0.000140
     1.6210      0.000030
     1.6215      0.000710
     1.6220      0.000750
     1.6225      0.000010
     1.6230      0.000040
     1.6235      0.000410
     1.6240      0.000000
     1.6245      0.000010
     1.6250      0.000210
     1.6255      0.000230
     1.6260      0.000000
     1.6265      0.000170
     1.6270      0.000030
     1.6275      0.000000
     1.6280      0.000000
     1.6285      0.000140
     1.6290      0.000000
     1.6295      0.000000
     1.6300      0.000000
     1.6305      0.000000
     1.6310      0.000000
     1.6315      0.000000
     1.6320      0.000000
     1.6325      0.000000
     1.6330      0.000000
     1.6335      0.000000
     1.6340      0.000120
     1.6345      0.000000
     1.6350      0.000000
     1.6355      0.000000
     1.6360      0.000000
     1.6365      0.000000
     1.6370      0.000000
     1.6375      0.000000
     1.6380      0.000000
     1.6385      0.000000
     1.6390      0.000000
     1.6395      0.000000
     1.6400      0.000000
     1.6405      0.000000
     1.6410      0.000000
     1.6415      0.000000
     1.6420      0.000040
     1.6425      0.000570
     1.6430      0.000020
     1.6435      0.000010
     1.6440      0.000000
     1.6445      0.000000
     1.6450      0.000000
     1.6455      0.000000
     1.6460      0.000060
     1.6465      0.000000
     1.6470      0.000200
     1.6475      0.000000
     1.6480      0.000000
     1.6485      0.000000
     1.6490      0.000000
     1.6495      0.000000
     1.6500      0.000000
     1.6505      0.000000
     1.6510      0.000000
     1.6515      0.000000
     1.6520      0.000000
     1.6525      0.000000
     1.6530      0.000000
     1.6535      0.000000
     1.6540      0.000000
     1.6545      0.000000
     1.6550      0.000000
     1.6555      0.000000
     1.6560      0.000000
     1.6565      0.000000
     1.6570      0.000000
     1.6575      0.000000
     1.6580      0.000000
     1.6585      0.000000
     1.6590      0.000000
     1.6595      0.000000
     1.6600      0.000020
     1.6605      0.000040
     1.6610      0.000000
     1.6615      0.000000
     1.6620      0.000000
     1.6625      0.000000
     1.6630      0.000060
     1.6635      0.000000
     1.6640      0.000000
     1.6645      0.000000
     1.6650      0.000210
     1.6655      0.000110
     1.6660      0.000000
     1.6665      0.000000
     1.6670      0.000000
     1.6675      0.000000
     1.6680      0.000000
     1.6685      0.000000
     1.6690      0.000000
     1.6695      0.000000
     1.6700      0.000000
     1.6705      0.000340
     1.6710      0.000100
     1.6715      0.000000
     1.6720      0.000000
     1.6725      0.000000
     1.6730      0.000000
     1.6735      0.000000
     1.6740      0.000000
     1.6745      0.000000
     1.6750      0.000000
     1.6755      0.000000
     1.6760      0.000000
     1.6765      0.000000
     1.6770      0.000000
     1.6775      0.000460
     1.6780      0.000650
     1.6785      0.000630
     1.6790      0.000130
     1.6795      0.000360
     1.6800      0.000040
     1.6805      0.000000
     1.6810      0.000000
     1.6815      0.000000
     1.6820      0.000000
     1.6825      0.000000
     1.6830      0.000000
     1.6835      0.000000
     1.6840      0.000000
     1.6845      0.000000
     1.6850      0.000000
     1.6855      0.000000
     1.6860      0.000000
     1.6865      0.000000
     1.6870      0.000000
     1.6875      0.000000
     1.6880      0.000000
     1.6885      0.000000
     1.6890      0.000000
     1.6895      0.000000
     1.6900      0.000000
     1.6905      0.000000
     1.6910      0.000010
     1.6915      0.000010
     1.6920      0.000000
     1.6925      0.000000
     1.6930      0.000000
     1.6935      0.000000
     1.6940      0.000220
     1.6945      0.000000
     1.6950      0.000000
     1.6955      0.000010
     1.6960      0.000130
     1.6965      0.000000
     1.6970      0.000180
     1.6975      0.000010
     1.6980      0.000060
     1.6985      0.000120
     1.6990      0.000000
     1.6995      0.000100
     1.7000      0.000030
     1.7005      0.000000
     1.7010      0.000000
     1.7015      0.000000
     1.7020      0.000000
     1.7025      0.000000
     1.7030      0.000000
     1.7035      0.000000
     1.7040      0.000000
     1.7045      0.000000
     1.7050      0.000000
     1.7055      0.000000
     1.7060      0.000000
     1.7065      0.000000
     1.7070      0.000000
     1.7075      0.000000
     1.7080      0.000000
     1.7085      0.000000
     1.7090      0.000000
     1.7095      0.000000
     1.7100      0.000000
     1.7105      0.000000
     1.7110      0.000030
     1.7115      0.000000
     1.7120      0.000000
     1.7125      0.000000
     1.7130      0.000000
     1.7135      0.000000
     1.7140      0.000350
     1.7145      0.000000
     1.7150      0.000000
     1.7155      0.000000
     1.7160      0.000000
     1.7165      0.000000
     1.7170      0.000000
     1.7175      0.000000
     1.7180      0.000000
     1.7185      0.000000
     1.7190      0.000000
     1.7195      0.000000
     1.7200      0.000140
     1.7205      0.000000
     1.7210      0.000000
     1.7215      0.000000
     1.7220      0.000000
     1.7225      0.000000
     1.7230      0.000100
     1.7235      0.000040
     1.7240      0.000000
     1.7245      0.000000
     1.7250      0.000000
     1.7255      0.000000
     1.7260      0.000000
     1.7265      0.000020
     1.7270      0.000010
     1.7275      0.000000
     1.7280      0.000000
     1.7285      0.000000
     1.7290      0.000000
     1.7295      0.000050
     1.7300      0.000000
     1.7305      0.000000
     1.7310      0.000000
     1.7315      0.000000
     1.7320      0.000000
     1.7325      0.000000
     1.7330      0.000000
     1.7335      0.000000
     1.7340      0.000000
     1.7345      0.000000
     1.7350      0.000000
     1.7355      0.000060
     1.7360      0.000000
     1.7365      0.000000
     1.7370      0.000000
     1.7375      0.000000
     1.7380      0.000000
     1.7385      0.000360
     1.7390      0.000400
     1.7395      0.000220
     1.7400      0.000230
     1.7405      0.000280
     1.7410      0.000060
     1.7415      0.000010
     1.7420      0.000000
     1.7425      0.000000
     1.7430      0.000000
     1.7435      0.000270
     1.7440      0.000340
     1.7445      0.000000
     1.7450      0.000000
     1.7455      0.000000
     1.7460      0.000000
     1.7465      0.000000
     1.7470      0.000000
     1.7475      0.000000
     1.7480      0.000000
     1.7485      0.000000
     1.7490      0.000140
     1.7495      0.000710
     1.7500      0.001160
     1.7505      0.000040
     1.7510      0.000080
     1.7515      0.000510
     1.7520      0.000000
     1.7525      0.000000
     1.7530      0.000000
     1.7535      0.000000
     1.7540      0.000050
     1.7545      0.000000
     1.7550      0.000120
     1.7555      0.000630
     1.7560      0.000640
     1.7565      0.000080
     1.7570      0.000060
     1.7575      0.000110
     1.7580      0.000000
     1.7585      0.000000
     1.7590      0.000000
     1.7595      0.000000
     1.7600      0.000000
     1.7605      0.000010
     1.7610      0.000010
     1.7615      0.000000
     1.7620      0.000040
     1.7625      0.000170
     1.7630      0.000000
     1.7635      0.000070
     1.7640      0.000420
     1.7645      0.000280
     1.7650      0.000210
     1.7655      0.000000
     1.7660      0.000000
     1.7665      0.000370
     1.7670      0.000000
     1.7675      0.000000
     1.7680      0.000040
     1.7685      0.000380
     1.7690      0.000120
     1.7695      0.000000
     1.7700      0.000000
     1.7705      0.000000
     1.7710      0.000180
     1.7715      0.000320
     1.7720      0.000220
     1.7725      0.000000
     1.7730      0.000280
     1.7735      0.000140
     1.7740      0.000000
     1.7745      0.000090
     1.7750      0.000000
     1.7755      0.000000
     1.7760      0.000000
     1.7765      0.000350
     1.7770      0.000410
     1.7775      0.000050
     1.7780      0.000170
     1.7785      0.000090
     1.7790      0.000000
     1.7795      0.000000
     1.7800      0.000000
     1.7805      0.000000
     1.7810      0.000000
     1.7815      0.000040
     1.7820      0.000430
     1.7825      0.000210
     1.7830      0.000000
     1.7835      0.000000
     1.7840      0.000140
     1.7845      0.000060
     1.7850      0.000000
     1.7855      0.000000
     1.7860      0.000000
     1.7865      0.000000
     1.7870      0.000220
     1.7875      0.000000
     1.7880      0.000000
     1.7885      0.000000
     1.7890      0.000000
     1.7895      0.000000
     1.7900      0.000000
     1.7905      0.000000
     1.7910      0.000010
     1.7915      0.000020
     1.7920      0.000150
     1.7925      0.000770
     1.7930      0.000130
     1.7935      0.000000
     1.7940      0.000000
     1.7945      0.000000
     1.7950      0.000240
     1.7955      0.000500
     1.7960      0.000490
     1.7965      0.000000
     1.7970      0.000000
     1.7975      0.000010
     1.7980      0.000000
     1.7985      0.000060
     1.7990      0.000280
     1.7995      0.000000
     1.8000      0.000000
     1.8005      0.000080
     1.8010      0.000000
     1.8015      0.000000
     1.8020      0.000000
     1.8025      0.000000
     1.8030      0.000000
     1.8035      0.000000
     1.8040      0.000000
     1.8045      0.000000
     1.8050      0.000030
     1.8055      0.000370
     1.8060      0.000090
     1.8065      0.000000
     1.8070      0.000000
     1.8075      0.000000
     1.8080      0.000000
     1.8085      0.000000
     1.8090      0.000000
     1.8095      0.000000
     1.8100      0.000630
     1.8105      0.000960
     1.8110      0.000230
     1.8115      0.000000
     1.8120      0.000060
     1.8125      0.000490
     1.8130      0.000620
     1.8135      0.000120
     1.8140      0.000000
     1.8145      0.000000
     1.8150      0.000340
     1.8155      0.000510
     1.8160      0.000000
     1.8165      0.000000
     1.8170      0.000000
     1.8175      0.000000
     1.8180      0.000030
     1.8185      0.000150
     1.8190      0.000090
     1.8195      0.000530
     1.8200      0.000000
     1.8205      0.000000
     1.8210      0.000000
     1.8215      0.000020
     1.8220      0.000000
     1.8225      0.000000
     1.8230      0.000000
     1.8235      0.000100
     1.8240      0.000540
     1.8245      0.000120
     1.8250      0.000000
     1.8255      0.000000
     1.8260      0.000000
     1.8265      0.000000
     1.8270      0.000000
     1.8275      0.000000
     1.8280      0.000000
     1.8285      0.000000
     1.8290      0.000000
     1.8295      0.000000
     1.8300      0.000000
     1.8305      0.000000
     1.8310      0.000000
     1.8315      0.000000
     1.8320      0.000000
     1.8325      0.000000
     1.8330      0.000000
     1.8335      0.000000
     1.8340      0.000000
     1.8345      0.000000
     1.8350      0.000000
     1.8355      0.000090
     1.8360      0.000140
     1.8365      0.000000
     1.8370      0.000230
     1.8375      0.000000
     1.8380      0.000140
     1.8385      0.000770
     1.8390      0.001100
     1.8395      0.000690
     1.8400      0.000560
     1.8405      0.000430
     1.8410      0.000600
     1.8415      0.000180
     1.8420      0.000310
     1.8425      0.000870
     1.8430      0.000490
     1.8435      0.000130
     1.8440      0.000010
     1.8445      0.000000
     1.8450      0.000000
     1.8455      0.000020
     1.8460      0.000040
     1.8465      0.000080
     1.8470      0.000000
     1.8475      0.000000
     1.8480      0.000000
     1.8485      0.000250
     1.8490      0.000940
     1.8495      0.000590
     1.8500      0.000520
     1.8505      0.000630
     1.8510      0.000110
     1.8515      0.000000
     1.8520      0.000000
     1.8525      0.000000
     1.8530      0.000040
     1.8535      0.000440
     1.8540      0.000750
     1.8545      0.000150
     1.8550      0.000070
     1.8555      0.000350
     1.8560      0.000020
     1.8565      0.000180
     1.8570      0.000310
     1.8575      0.000250
     1.8580      0.000030
     1.8585      0.000410
     1.8590      0.000380
     1.8595      0.000000
     1.8600      0.000000
     1.8605      0.000000
     1.8610      0.000060
     1.8615      0.000000
     1.8620      0.000510
     1.8625      0.000540
     1.8630      0.000380
     1.8635      0.000140
     1.8640      0.000150
     1.8645      0.000320
     1.8650      0.000000
     1.8655      0.000310
     1.8660      0.000680
     1.8665      0.000070
     1.8670      0.000430
     1.8675      0.000200
     1.8680      0.000240
     1.8685      0.000130
     1.8690      0.000000
     1.8695      0.000000
     1.8700      0.000000
     1.8705      0.000000
     1.8710      0.000010
     1.8715      0.000000
     1.8720      0.000000
     1.8725      0.000100
     1.8730      0.000000
     1.8735      0.000020
     1.8740      0.000010
     1.8745      0.000000
     1.8750      0.000000
     1.8755      0.000020
     1.8760      0.000350
     1.8765      0.000320
     1.8770      0.000010
     1.8775      0.000000
     1.8780      0.000000
     1.8785      0.000420
     1.8790      0.000240
     1.8795      0.000020
     1.8800      0.000490
     1.8805      0.000830
     1.8810      0.000880
     1.8815      0.001210
     1.8820      0.001220
     1.8825      0.000510
     1.8830      0.000310
     1.8835      0.000600
     1.8840      0.000380
     1.8845      0.000060
     1.8850      0.000200
     1.8855      0.000770
     1.8860      0.000580
     1.8865      0.000760
     1.8870      0.001100
     1.8875      0.000580
     1.8880      0.000450
     1.8885      0.000610
     1.8890      0.000610
     1.8895      0.000430
     1.8900      0.000190
     1.8905      0.000640
     1.8910      0.001040
     1.8915      0.001030
     1.8920      0.000730
     1.8925      0.000640
     1.8930      0.000300
     1.8935      0.000280
     1.8940      0.000650
     1.8945      0.000150
     1.8950      0.000110
     1.8955      0.000170
     1.8960      0.000000
     1.8965      0.000000
     1.8970      0.000000
     1.8975      0.000000
     1.8980      0.000000
     1.8985      0.000000
     1.8990      0.000000
     1.8995      0.000110
     1.9000      0.000020
     1.9005      0.000010
     1.9010      0.000000
     1.9015      0.000280
     1.9020      0.000370
     1.9025      0.000080
     1.9030      0.000000
     1.9035      0.000290
     1.9040      0.000670
     1.9045      0.000300
     1.9050      0.000070
     1.9055      0.000550
     1.9060      0.000430
     1.9065      0.000010
     1.9070      0.000000
     1.9075      0.000000
     1.9080      0.000100
     1.9085      0.000020
     1.9090      0.000270
     1.9095      0.000750
     1.9100      0.000360
     1.9105      0.000420
     1.9110      0.000000
     1.9115      0.000090
     1.9120      0.000120
     1.9125      0.000000
     1.9130      0.000000
     1.9135      0.000000
     1.9140      0.000000
     1.9145      0.000000
     1.9150      0.000000
     1.9155      0.000080
     1.9160      0.000170
     1.9165      0.000000
     1.9170      0.000270
     1.9175      0.000610
     1.9180      0.000090
     1.9185      0.000000
     1.9190      0.000000
     1.9195      0.000000
     1.9200      0.000000
     1.9205      0.000000
     1.9210      0.000200
     1.9215      0.000630
     1.9220      0.000240
     1.9225      0.000000
     1.9230      0.000000
     1.9235      0.000000
     1.9240      0.000000
     1.9245      0.000000
     1.9250      0.000290
     1.9255      0.000580
     1.9260      0.000040
     1.9265      0.000560
     1.9270      0.000710
     1.9275      0.000380
     1.9280      0.000440
     1.9285      0.000000
     1.9290      0.000270
     1.9295      0.000260
     1.9300      0.000000
     1.9305      0.000410
     1.9310      0.000000
     1.9315      0.000000
     1.9320      0.000000
     1.9325      0.000000
     1.9330      0.000000
     1.9335      0.000170
     1.9340      0.000380
     1.9345      0.000030
     1.9350      0.000000
     1.9355      0.000000
     1.9360      0.000040
     1.9365      0.000210
     1.9370      0.000640
     1.9375      0.000740
     1.9380      0.000040
     1.9385      0.000000
     1.9390      0.000740
     1.9395      0.000660
     1.9400      0.000710
     1.9405      0.000090
     1.9410      0.000000
     1.9415      0.000500
     1.9420      0.000520
     1.9425      0.000470
     1.9430      0.000790
     1.9435      0.000600
     1.9440      0.000370
     1.9445      0.000130
     1.9450      0.000250
     1.9455      0.000200
     1.9460      0.000680
     1.9465      0.000570
     1.9470      0.000120
     1.9475      0.000310
     1.9480      0.000350
     1.9485      0.000050
     1.9490      0.000000
     1.9495      0.000060
     1.9500      0.000380
     1.9505      0.000040
     1.9510      0.000000
     1.9515      0.000000
     1.9520      0.000120
     1.9525      0.000260
     1.9530      0.000160
     1.9535      0.000000
     1.9540      0.000000
     1.9545      0.000000
     1.9550      0.000000
     1.9555      0.000190
     1.9560      0.000430
     1.9565      0.000450
     1.9570      0.000400
     1.9575      0.000440
     1.9580      0.000660
     1.9585      0.001030
     1.9590      0.000840
     1.9595      0.000010
     1.9600      0.000000
     1.9605      0.000000
     1.9610      0.000000
     1.9615      0.000000
     1.9620      0.000000
     1.9625      0.000000
     1.9630      0.000000
     1.9635      0.000030
     1.9640      0.000570
     1.9645      0.000480
     1.9650      0.000000
     1.9655      0.000000
     1.9660      0.000000
     1.9665      0.001160
     1.9670      0.001120
     1.9675      0.000810
     1.9680      0.000400
     1.9685      0.000260
     1.9690      0.000300
     1.9695      0.000250
     1.9700      0.000680
     1.9705      0.000870
     1.9710      0.000930
     1.9715      0.000470
     1.9720      0.000170
     1.9725      0.000610
     1.9730      0.000650
     1.9735      0.000760
     1.9740      0.000180
     1.9745      0.000160
     1.9750      0.000710
     1.9755      0.000300
     1.9760      0.000000
     1.9765      0.000000
     1.9770      0.000210
     1.9775      0.000170
     1.9780      0.000030
     1.9785      0.000000
     1.9790      0.000000
     1.9795      0.000000
     1.9800      0.000020
     1.9805      0.000270
     1.9810      0.000200
     1.9815      0.000000
     1.9820      0.000000
     1.9825      0.000250
     1.9830      0.000780
     1.9835      0.000620
     1.9840      0.000400
     1.9845      0.000700
     1.9850      0.000420
     1.9855      0.000050
     1.9860      0.000010
     1.9865      0.000130
     1.9870      0.000000
     1.9875      0.000000
     1.9880      0.000000
     1.9885      0.000000
     1.9890      0.000000
     1.9895      0.000090
     1.9900      0.000210
     1.9905      0.000090
     1.9910      0.000000
     1.9915      0.000000
     1.9920      0.000000
     1.9925      0.000230
     1.9930      0.000580
     1.9935      0.000400
     1.9940      0.000510
     1.9945      0.000360
     1.9950      0.000090
     1.9955      0.000000
     1.9960      0.000000
     1.9965      0.000000
     1.9970      0.000160
     1.9975      0.000480
     1.9980      0.000010
     1.9985      0.000000
     1.9990      0.000000
     1.9995      0.000000
     2.0000      0.000000
     2.0005      0.000000
     2.0010      0.000110
     2.0015      0.000260
     2.0020      0.000780
     2.0025      0.000960
     2.0030      0.000340
     2.0035      0.000420
     2.0040      0.000080
     2.0045      0.000000
     2.0050      0.000000
     2.0055      0.000000
     2.0060      0.000500
     2.0065      0.000200
     2.0070      0.000210
     2.0075      0.000260
     2.0080      0.000010
     2.0085      0.000140
     2.0090      0.000160
     2.0095      0.000000
     2.0100      0.000000
     2.0105      0.000000
     2.0110      0.000000
     2.0115      0.000000
     2.0120      0.000020
     2.0125      0.000060
     2.0130      0.000360
     2.0135      0.000300
     2.0140      0.000120
     2.0145      0.000040
     2.0150      0.000000
     2.0155      0.000000
     2.0160      0.000000
     2.0165      0.000550
     2.0170      0.000650
     2.0175      0.000510
     2.0180      0.000760
     2.0185      0.000580
     2.0190      0.000070
     2.0195      0.000260
     2.0200      0.000080
     2.0205      0.000000
     2.0210      0.000000
     2.0215      0.000000
     2.0220      0.000000
     2.0225      0.000130
     2.0230      0.000000
     2.0235      0.000000
     2.0240      0.000300
     2.0245      0.000660
     2.0250      0.000360
     2.0255      0.000040
     2.0260      0.000270
     2.0265      0.000290
     2.0270      0.000030
     2.0275      0.000220
     2.0280      0.000350
     2.0285      0.000220
     2.0290      0.000120
     2.0295      0.000420
     2.0300      0.000000
     2.0305      0.000000
     2.0310      0.000440
     2.0315      0.000980
     2.0320      0.000620
     2.0325      0.000580
     2.0330      0.000610
     2.0335      0.000070
     2.0340      0.000000
     2.0345      0.000030
     2.0350      0.000030
     2.0355      0.000000
     2.0360      0.000000
     2.0365      0.000090
     2.0370      0.000100
     2.0375      0.000000
     2.0380      0.000030
     2.0385      0.000380
     2.0390      0.000380
     2.0395      0.000150
     2.0400      0.000140
     2.0405      0.000000
     2.0410      0.000000
     2.0415      0.000000
     2.0420      0.000310
     2.0425      0.000380
     2.0430      0.000020
     2.0435      0.000590
     2.0440      0.000850
     2.0445      0.000190
     2.0450      0.000000
     2.0455      0.000000
     2.0460      0.000100
     2.0465      0.000150
     2.0470      0.000050
     2.0475      0.000000
     2.0480      0.000090
     2.0485      0.000000
     2.0490      0.000000
     2.0495      0.000160
     2.0500      0.000280
     2.0505      0.000040
     2.0510      0.000000
     2.0515      0.000000
     2.0520      0.000000
     2.0525      0.000000
     2.0530      0.000000
     2.0535      0.000000
     2.0540      0.000000
     2.0545      0.000000
     2.0550      0.000000
     2.0555      0.000000
     2.0560      0.000000
     2.0565      0.000000
     2.0570      0.000000
     2.0575      0.000080
     2.0580      0.000100
     2.0585      0.000000
     2.0590      0.000000
     2.0595      0.000000
     2.0600      0.000020
     2.0605      0.000140
     2.0610      0.000430
     2.0615      0.000420
     2.0620      0.000310
     2.0625      0.000060
     2.0630      0.000000
     2.0635      0.000000
     2.0640      0.000200
     2.0645      0.000280
     2.0650      0.000100
     2.0655      0.000000
     2.0660      0.000010
     2.0665      0.000250
     2.0670      0.000710
     2.0675      0.000200
     2.0680      0.000000
     2.0685      0.000060
     2.0690      0.000350
     2.0695      0.000170
     2.0700      0.000010
     2.0705      0.000000
     2.0710      0.000000
     2.0715      0.000000
     2.0720      0.000000
     2.0725      0.000000
     2.0730      0.000000
     2.0735      0.000000
     2.0740      0.000000
     2.0745      0.000000
     2.0750      0.000000
     2.0755      0.000000
     2.0760      0.000000
     2.0765      0.000000
     2.0770      0.000000
     2.0775      0.000000
     2.0780      0.000000
     2.0785      0.000000
     2.0790      0.000000
     2.0795      0.000000
     2.0800      0.000000
     2.0805      0.000010
     2.0810      0.000160
     2.0815      0.000120
     2.0820      0.000210
     2.0825      0.000270
     2.0830      0.000000
     2.0835      0.000060
     2.0840      0.000030
     2.0845      0.000000
     2.0850      0.000000
     2.0855      0.000000
     2.0860      0.000000
     2.0865      0.000000
     2.0870      0.000440
     2.0875      0.000660
     2.0880      0.000260
     2.0885      0.000300
     2.0890      0.000190
     2.0895      0.000010
     2.0900      0.000000
     2.0905      0.000000
     2.0910      0.000320
     2.0915      0.000510
     2.0920      0.000970
     2.0925      0.001310
     2.0930      0.001020
     2.0935      0.000400
     2.0940      0.000000
     2.0945      0.000000
     2.0950      0.000000
     2.0955      0.000130
     2.0960      0.000500
     2.0965      0.000410
     2.0970      0.000000
     2.0975      0.000160
     2.0980      0.000340
     2.0985      0.000060
     2.0990      0.000040
     2.0995      0.000340
     2.1000      0.000080
     2.1005      0.000110
     2.1010      0.000130
     2.1015      0.000010
     2.1020      0.000000
     2.1025      0.000060
     2.1030      0.000300
     2.1035      0.000650
     2.1040      0.000360
     2.1045      0.000020
     2.1050      0.000010
     2.1055      0.000140
     2.1060      0.000360
     2.1065      0.000340
     2.1070      0.000320
     2.1075      0.000190
     2.1080      0.000000
     2.1085      0.000000
     2.1090      0.000000
     2.1095      0.000260
     2.1100      0.000240
     2.1105      0.000020
     2.1110      0.000060
     2.1115      0.000030
     2.1120      0.000060
     2.1125      0.000170
     2.1130      0.000050
     2.1135      0.000160
     2.1140      0.000280
     2.1145      0.000000
     2.1150      0.000000
     2.1155      0.000000
     2.1160      0.000000
     2.1165      0.000120
     2.1170      0.000190
     2.1175      0.000050
     2.1180      0.000050
     2.1185      0.000000
     2.1190      0.000000
     2.1195      0.000290
     2.1200      0.000300
     2.1205      0.000100
     2.1210      0.000000
     2.1215      0.000000
     2.1220      0.000060
     2.1225      0.000040
     2.1230      0.000000
     2.1235      0.000000
     2.1240      0.000000
     2.1245      0.000000
     2.1250      0.000000
     2.1255      0.000000
     2.1260      0.000000
     2.1265      0.000000
     2.1270      0.000000
     2.1275      0.000000
     2.1280      0.000000
     2.1285      0.000000
     2.1290      0.000090
     2.1295      0.000230
     2.1300      0.000300
     2.1305      0.000000
     2.1310      0.000000
     2.1315      0.000000
     2.1320      0.000020
     2.1325      0.000300
     2.1330      0.000430
     2.1335      0.000170
     2.1340      0.000000
     2.1345      0.000040
     2.1350      0.000330
     2.1355      0.000350
     2.1360      0.000110
     2.1365      0.000490
     2.1370      0.000420
     2.1375      0.000010
     2.1380      0.000000
     2.1385      0.000000
     2.1390      0.000000
     2.1395      0.000000
     2.1400      0.000000
     2.1405      0.000000
     2.1410      0.000000
     2.1415      0.000000
     2.1420      0.000000
     2.1425      0.000000
     2.1430      0.000000
     2.1435      0.000000
     2.1440      0.000000
     2.1445      0.000000
     2.1450      0.000000
     2.1455      0.000000
     2.1460      0.000070
     2.1465      0.000000
     2.1470      0.000000
     2.1475      0.000000
     2.1480      0.000000
     2.1485      0.000000
     2.1490      0.000000
     2.1495      0.000100
     2.1500      0.000340
     2.1505      0.000080
     2.1510      0.000000
     2.1515      0.000000
     2.1520      0.000030
     2.1525      0.000010
     2.1530      0.000000
     2.1535      0.000000
     2.1540      0.000000
     2.1545      0.000000
     2.1550      0.000000
     2.1555      0.000000
     2.1560      0.000000
     2.1565      0.000210
     2.1570      0.000200
     2.1575      0.000120
     2.1580      0.000230
     2.1585      0.000340
     2.1590      0.000340
     2.1595      0.000100
     2.1600      0.000000
     2.1605      0.000000
     2.1610      0.000000
     2.1615      0.000050
     2.1620      0.000000
     2.1625      0.000180
     2.1630      0.000400
     2.1635      0.000000
     2.1640      0.000090
     2.1645      0.000150
     2.1650      0.000020
     2.1655      0.000000
     2.1660      0.000000
     2.1665      0.000000
     2.1670      0.000000
     2.1675      0.000040
     2.1680      0.000440
     2.1685      0.000710
     2.1690      0.000350
     2.1695      0.000090
     2.1700      0.000110
     2.1705      0.000030
     2.1710      0.000130
     2.1715      0.000700
     2.1720      0.000940
     2.1725      0.000560
     2.1730      0.000280
     2.1735      0.000620
     2.1740      0.000670
     2.1745      0.000210
     2.1750      0.000000
     2.1755      0.000260
     2.1760      0.000870
     2.1765      0.000970
     2.1770      0.000360
     2.1775      0.000000
     2.1780      0.000000
     2.1785      0.000000
     2.1790      0.000100
     2.1795      0.000340
     2.1800      0.000380
     2.1805      0.000320
     2.1810      0.000120
     2.1815      0.000010
     2.1820      0.000000
     2.1825      0.000000
     2.1830      0.000000
     2.1835      0.000000
     2.1840      0.000000
     2.1845      0.000000
     2.1850      0.000070
     2.1855      0.000080
     2.1860      0.000000
     2.1865      0.000000
     2.1870      0.000000
     2.1875      0.000390
     2.1880      0.000430
     2.1885      0.000180
     2.1890      0.000000
     2.1895      0.000000
     2.1900      0.000090
     2.1905      0.000460
     2.1910      0.000470
     2.1915      0.000110
     2.1920      0.000000
     2.1925      0.000090
     2.1930      0.000200
     2.1935      0.000040
     2.1940      0.000000
     2.1945      0.000170
     2.1950      0.000470
     2.1955      0.000810
     2.1960      0.000430
     2.1965      0.000200
     2.1970      0.000190
     2.1975      0.000000
     2.1980      0.000000
     2.1985      0.000000
     2.1990      0.000000
     2.1995      0.000000
     2.2000      0.000160
     2.2005      0.000170
     2.2010      0.000160
     2.2015      0.000210
     2.2020      0.000000
     2.2025      0.000000
     2.2030      0.000000
     2.2035      0.000000
     2.2040      0.000010
     2.2045      0.000190
     2.2050      0.000220
     2.2055      0.000000
     2.2060      0.000180
     2.2065      0.000110
     2.2070      0.000030
     2.2075      0.000600
     2.2080      0.000730
     2.2085      0.000060
     2.2090      0.000000
     2.2095      0.000020
     2.2100      0.000430
     2.2105      0.000390
     2.2110      0.000130
     2.2115      0.000140
     2.2120      0.000080
     2.2125      0.000000
     2.2130      0.000200
     2.2135      0.000580
     2.2140      0.000780
     2.2145      0.000860
     2.2150      0.000470
     2.2155      0.000070
     2.2160      0.000050
     2.2165      0.000180
     2.2170      0.000020
     2.2175      0.000000
     2.2180      0.000360
     2.2185      0.000290
     2.2190      0.000050
     2.2195      0.000220
     2.2200      0.000490
     2.2205      0.000270
     2.2210      0.000000
     2.2215      0.000000
     2.2220      0.000000
     2.2225      0.000000
     2.2230      0.000000
     2.2235      0.000020
     2.2240      0.000060
     2.2245      0.000190
     2.2250      0.000190
     2.2255      0.000040
     2.2260      0.000000
     2.2265      0.000000
     2.2270      0.000000
     2.2275      0.000330
     2.2280      0.000570
     2.2285      0.000790
     2.2290      0.000500
     2.2295      0.000020
     2.2300      0.000000
     2.2305      0.000000
     2.2310      0.000000
     2.2315      0.000000
     2.2320      0.000000
     2.2325      0.000000
     2.2330      0.000000
     2.2335      0.000000
     2.2340      0.000000
     2.2345      0.000000
     2.2350      0.000000
     2.2355      0.000070
     2.2360      0.000280
     2.2365      0.000400
     2.2370      0.000150
     2.2375      0.000010
     2.2380      0.000000
     2.2385      0.000000
     2.2390      0.000100
     2.2395      0.000280
     2.2400      0.000020
     2.2405      0.000000
     2.2410      0.000000
     2.2415      0.000000
     2.2420      0.000000
     2.2425      0.000000
     2.2430      0.000000
     2.2435      0.000000
     2.2440      0.000000
     2.2445      0.000000
     2.2450      0.000000
     2.2455      0.000000
     2.2460      0.000000
     2.2465      0.000000
     2.2470      0.000000
     2.2475      0.000000
     2.2480      0.000000
     2.2485      0.000000
     2.2490      0.000080
     2.2495      0.000130
     2.2500      0.000040
     2.2505      0.000000
     2.2510      0.000010
     2.2515      0.000010
     2.2520      0.000000
     2.2525      0.000000
     2.2530      0.000000
     2.2535      0.000000
     2.2540      0.000000
     2.2545      0.000000
     2.2550      0.000100
     2.2555      0.000280
     2.2560      0.000070
     2.2565      0.000000
     2.2570      0.000000
     2.2575      0.000250
     2.2580      0.000600
     2.2585      0.000780
     2.2590      0.000610
     2.2595      0.000140
     2.2600      0.000020
     2.2605      0.000350
     2.2610      0.000730
     2.2615      0.001080
     2.2620      0.001090
     2.2625      0.000630
     2.2630      0.000470
     2.2635      0.000640
     2.2640      0.000570
     2.2645      0.000610
     2.2650      0.000560
     2.2655      0.000220
     2.2660      0.000400
     2.2665      0.000930
     2.2670      0.000910
     2.2675      0.000460
     2.2680      0.000230
     2.2685      0.000080
     2.2690      0.000000
     2.2695      0.000050
     2.2700      0.000380
     2.2705      0.000080
     2.2710      0.000030
     2.2715      0.000260
     2.2720      0.000560
     2.2725      0.000220
     2.2730      0.000000
     2.2735      0.000000
     2.2740      0.000040
     2.2745      0.000100
     2.2750      0.000090
     2.2755      0.000020
     2.2760      0.000190
     2.2765      0.000440
     2.2770      0.000070
     2.2775      0.000000
     2.2780      0.000000
     2.2785      0.000000
     2.2790      0.000000
     2.2795      0.000030
     2.2800      0.000140
     2.2805      0.000000
     2.2810      0.000010
     2.2815      0.000170
     2.2820      0.000530
     2.2825      0.000240
     2.2830      0.000250
     2.2835      0.000380
     2.2840      0.000070
     2.2845      0.000000
     2.2850      0.000000
     2.2855      0.000000
     2.2860      0.000000
     2.2865      0.000000
     2.2870      0.000000
     2.2875      0.000000
     2.2880      0.000000
     2.2885      0.000000
     2.2890      0.000000
     2.2895      0.000000
     2.2900      0.000000
     2.2905      0.000000
     2.2910      0.000000
     2.2915      0.000000
     2.2920      0.000000
     2.2925      0.000000
     2.2930      0.000000
     2.2935      0.000000
     2.2940      0.000000
     2.2945      0.000000
     2.2950      0.000000
     2.2955      0.000000
     2.2960      0.000000
     2.2965      0.000000
     2.2970      0.000000
     2.2975      0.000000
     2.2980      0.000000
     2.2985      0.000000
     2.2990      0.000000
     2.2995      0.000000
     2.3000      0.000000
     2.3005      0.000000
     2.3010      0.000000
     2.3015      0.000000
     2.3020      0.000000
     2.3025      0.000000
     2.3030      0.000000
     2.3035      0.000000
     2.3040      0.000100
     2.3045      0.000390
     2.3050      0.000400
     2.3055      0.000100
     2.3060      0.000000
     2.3065      0.000000
     2.3070      0.000000
     2.3075      0.000000
     2.3080      0.000000
     2.3085      0.000000
     2.3090      0.000000
     2.3095      0.000040
     2.3100      0.000200
     2.3105      0.000260
     2.3110      0.000060
     2.3115      0.000000
     2.3120      0.000000
     2.3125      0.000000
     2.3130      0.000000
     2.3135      0.000000
     2.3140      0.000000
     2.3145      0.000000
     2.3150      0.000000
     2.3155      0.000000
     2.3160      0.000000
     2.3165      0.000000
     2.3170      0.000000
     2.3175      0.000000
     2.3180      0.000000
     2.3185      0.000000
     2.3190      0.000350
     2.3195      0.000720
     2.3200      0.001070
     2.3205      0.000890
     2.3210      0.000290
     2.3215      0.000000
     2.3220      0.000130
     2.3225      0.000300
     2.3230      0.000180
     2.3235      0.000000
     2.3240      0.000000
     2.3245      0.000000
     2.3250      0.000000
     2.3255      0.000000
     2.3260      0.000000
     2.3265      0.000000
     2.3270      0.000000
     2.3275      0.000000
     2.3280      0.000000
     2.3285      0.000000
     2.3290      0.000020
     2.3295      0.000000
     2.3300      0.000000
     2.3305      0.000000
     2.3310      0.000000
     2.3315      0.000000
     2.3320      0.000000
     2.3325      0.000000
     2.3330      0.000000
     2.3335      0.000000
     2.3340      0.000000
     2.3345      0.000000
     2.3350      0.000000
     2.3355      0.000000
     2.3360      0.000000
     2.3365      0.000000
     2.3370      0.000000
     2.3375      0.000000
     2.3380      0.000000
     2.3385      0.000000
     2.3390      0.000240
     2.3395      0.000390
     2.3400      0.000390
     2.3405      0.000380
     2.3410      0.000370
     2.3415      0.000560
     2.3420      0.001000
     2.3425      0.001210
     2.3430      0.000830
     2.3435      0.000310
     2.3440      0.000150
     2.3445      0.000120
     2.3450      0.000000
     2.3455      0.000070
     2.3460      0.000480
     2.3465      0.000540
     2.3470      0.000010
     2.3475      0.000000
     2.3480      0.000000
     2.3485      0.000000
     2.3490      0.000000
     2.3495      0.000000
     2.3500      0.000000
     2.3505      0.000000
     2.3510      0.000000
     2.3515      0.000000
     2.3520      0.000010
     2.3525      0.000020
     2.3530      0.000000
     2.3535      0.000000
     2.3540      0.000020
     2.3545      0.000170
     2.3550      0.000360
     2.3555      0.000510
     2.3560      0.000070
     2.3565      0.000000
     2.3570      0.000000
     2.3575      0.000000
     2.3580      0.000000
     2.3585      0.000090
     2.3590      0.000350
     2.3595      0.000600
     2.3600      0.000640
     2.3605      0.000440
     2.3610      0.000000
     2.3615      0.000000
     2.3620      0.000000
     2.3625      0.000070
     2.3630      0.000010
     2.3635      0.000000
     2.3640      0.000000
     2.3645      0.000010
     2.3650      0.000010
     2.3655      0.000000
     2.3660      0.000000
     2.3665      0.000170
     2.3670      0.000300
     2.3675      0.000010
     2.3680      0.000000
     2.3685      0.000000
     2.3690      0.000000
     2.3695      0.000000
     2.3700      0.000060
     2.3705      0.000020
     2.3710      0.000100
     2.3715      0.000250
     2.3720      0.000140
     2.3725      0.000000
     2.3730      0.000000
     2.3735      0.000130
     2.3740      0.000350
     2.3745      0.000140
     2.3750      0.000000
     2.3755      0.000000
     2.3760      0.000000
     2.3765      0.000000
     2.3770      0.000000
     2.3775      0.000000
     2.3780      0.000070
     2.3785      0.000280
     2.3790      0.000460
     2.3795      0.000410
     2.3800      0.000240
     2.3805      0.000090
     2.3810      0.000130
     2.3815      0.000350
     2.3820      0.000180
     2.3825      0.000030
     2.3830      0.000280
     2.3835      0.000660
     2.3840      0.000770
     2.3845      0.000540
     2.3850      0.000200
     2.3855      0.000130
     2.3860      0.000530
     2.3865      0.000730
     2.3870      0.000380
     2.3875      0.000300
     2.3880      0.000350
     2.3885      0.000470
     2.3890      0.000560
     2.3895      0.000300
     2.3900      0.000050
     2.3905      0.000080
     2.3910      0.000140
     2.3915      0.000000
     2.3920      0.000020
     2.3925      0.000180
     2.3930      0.000020
     2.3935      0.000000
     2.3940      0.000000
     2.3945      0.000000
     2.3950      0.000090
     2.3955      0.000110
     2.3960      0.000010
     2.3965      0.000160
     2.3970      0.000650
     2.3975      0.000650
     2.3980      0.000380
     2.3985      0.000260
     2.3990      0.000060
     2.3995      0.000000
     2.4000      0.000000
     2.4005      0.000000
     2.4010      0.000000
     2.4015      0.000000
     2.4020      0.000000
     2.4025      0.000000
     2.4030      0.000000
     2.4035      0.000160
     2.4040      0.000730
     2.4045      0.000820
     2.4050      0.000460
     2.4055      0.000120
     2.4060      0.000110
     2.4065      0.000230
     2.4070      0.000040
     2.4075      0.000000
     2.4080      0.000150
     2.4085      0.000030
     2.4090      0.000000
     2.4095      0.000000
     2.4100      0.000000
     2.4105      0.000000
     2.4110      0.000000
     2.4115      0.000000
     2.4120      0.000010
     2.4125      0.000000
     2.4130      0.000000
     2.4135      0.000050
     2.4140      0.000030
     2.4145      0.000000
     2.4150      0.000050
     2.4155      0.000190
     2.4160      0.000280
     2.4165      0.000010
     2.4170      0.000000
     2.4175      0.000000
     2.4180      0.000000
     2.4185      0.000030
     2.4190      0.000120
     2.4195      0.000170
     2.4200      0.000170
     2.4205      0.000320
     2.4210      0.000420
     2.4215      0.000110
     2.4220      0.000020
     2.4225      0.000130
     2.4230      0.000190
     2.4235      0.000190
     2.4240      0.000200
     2.4245      0.000210
     2.4250      0.000180
     2.4255      0.000280
     2.4260      0.000450
     2.4265      0.000340
     2.4270      0.000110
     2.4275      0.000120
     2.4280      0.000370
     2.4285      0.000440
     2.4290      0.000000
     2.4295      0.000000
     2.4300      0.000000
     2.4305      0.000000
     2.4310      0.000000
     2.4315      0.000000
     2.4320      0.000000
     2.4325      0.000000
     2.4330      0.000060
     2.4335      0.000410
     2.4340      0.000110
     2.4345      0.000020
     2.4350      0.000000
     2.4355      0.000000
     2.4360      0.000000
     2.4365      0.000120
     2.4370      0.000390
     2.4375      0.000210
     2.4380      0.000020
     2.4385      0.000000
     2.4390      0.000000
     2.4395      0.000000
     2.4400      0.000040
     2.4405      0.000130
     2.4410      0.000180
     2.4415      0.000000
     2.4420      0.000000
     2.4425      0.000000
     2.4430      0.000000
     2.4435      0.000000
     2.4440      0.000000
     2.4445      0.000000
     2.4450      0.000000
     2.4455      0.000000
     2.4460      0.000000
     2.4465      0.000000
     2.4470      0.000000
     2.4475      0.000000
     2.4480      0.000000
     2.4485      0.000000
     2.4490      0.000000
     2.4495      0.000100
     2.4500      0.000190
     2.4505      0.000090
     2.4510      0.000000
     2.4515      0.000000
     2.4520      0.000000
     2.4525      0.000000
     2.4530      0.000000
     2.4535      0.000000
     2.4540      0.000000
     2.4545      0.000210
     2.4550      0.000640
     2.4555      0.001020
     2.4560      0.000870
     2.4565      0.000070
     2.4570      0.000000
     2.4575      0.000000
     2.4580      0.000000
     2.4585      0.000130
     2.4590      0.000410
     2.4595      0.000570
     2.4600      0.000670
     2.4605      0.000640
     2.4610      0.000820
     2.4615      0.000870
     2.4620      0.000530
     2.4625      0.000000
     2.4630      0.000000
     2.4635      0.000000
     2.4640      0.000000
     2.4645      0.000000
     2.4650      0.000000
     2.4655      0.000000
     2.4660      0.000000
     2.4665      0.000000
     2.4670      0.000000
     2.4675      0.000000
     2.4680      0.000000
     2.4685      0.000000
     2.4690      0.000000
     2.4695      0.000040
     2.4700      0.000270
     2.4705      0.000170
     2.4710      0.000100
     2.4715      0.000200
     2.4720      0.000260
     2.4725      0.000150
     2.4730      0.000000
     2.4735      0.000000
     2.4740      0.000010
     2.4745      0.000010
     2.4750      0.000070
     2.4755      0.000240
     2.4760      0.000430
     2.4765      0.000300
     2.4770      0.000040
     2.4775      0.000000
     2.4780      0.000240
     2.4785      0.000520
     2.4790      0.000550
     2.4795      0.000240
     2.4800      0.000150
     2.4805      0.000430
     2.4810      0.000520
     2.4815      0.000370
     2.4820      0.000160
     2.4825      0.000170
     2.4830      0.000450
     2.4835      0.000430
     2.4840      0.000150
     2.4845      0.000000
     2.4850      0.000000
     2.4855      0.000020
     2.4860      0.000130
     2.4865      0.000020
     2.4870      0.000000
     2.4875      0.000000
     2.4880      0.000000
     2.4885      0.000000
     2.4890      0.000010
     2.4895      0.000240
     2.4900      0.000400
     2.4905      0.000400
     2.4910      0.000250
     2.4915      0.000070
     2.4920      0.000000
     2.4925      0.000000
     2.4930      0.000000
     2.4935      0.000000
     2.4940      0.000000
     2.4945      0.000000
     2.4950      0.000000
     2.4955      0.000000
     2.4960      0.000000
     2.4965      0.000000
     2.4970      0.000000
     2.4975      0.000000
     2.4980      0.000000
     2.4985      0.000000
     2.4990      0.000000
     2.4995      0.000000
     2.5000      0.000000
     2.5005      0.000000
     2.5010      0.000000
     2.5015      0.000020
     2.5020      0.000010
     2.5025      0.000000
     2.5030      0.000000
     2.5035      0.000000
     2.5040      0.000000
     2.5045      0.000140
     2.5050      0.000150
     2.5055      0.000070
     2.5060      0.000000
     2.5065      0.000000
     2.5070      0.000010
     2.5075      0.000000
     2.5080      0.000000
     2.5085      0.000000
     2.5090      0.000000
     2.5095      0.000000
     2.5100      0.000000
     2.5105      0.000000
     2.5110      0.000000
     2.5115      0.000000
     2.5120      0.000020
     2.5125      0.000090
     2.5130      0.000020
     2.5135      0.000000
     2.5140      0.000000
     2.5145      0.000000
     2.5150      0.000000
     2.5155      0.000000
     2.5160      0.000000
     2.5165      0.000000
     2.5170      0.000000
     2.5175      0.000000
     2.5180      0.000000
     2.5185      0.000000
     2.5190      0.000000
     2.5195      0.000000
     2.5200      0.000000
     2.5205      0.000020
     2.5210      0.000150
     2.5215      0.000310
     2.5220      0.000280
     2.5225      0.000140
     2.5230      0.000000
     2.5235      0.000000
     2.5240      0.000000
     2.5245      0.000200
     2.5250      0.000250
     2.5255      0.000120
     2.5260      0.000000
     2.5265      0.000000
     2.5270      0.000000
     2.5275      0.000000
     2.5280      0.000040
     2.5285      0.000180
     2.5290      0.000580
     2.5295      0.000770
     2.5300      0.000850
     2.5305      0.000880
     2.5310      0.000850
     2.5315      0.000660
     2.5320      0.000210
     2.5325      0.000130
     2.5330      0.000470
     2.5335      0.001010
     2.5340      0.001210
     2.5345      0.000690
     2.5350      0.000210
     2.5355      0.000000
     2.5360      0.000000
     2.5365      0.000000
     2.5370      0.000000
     2.5375      0.000000
     2.5380      0.000000
     2.5385      0.000000
     2.5390      0.000000
     2.5395      0.000000
     2.5400      0.000000
     2.5405      0.000000
     2.5410      0.000010
     2.5415      0.000060
     2.5420      0.000150
     2.5425      0.000050
     2.5430      0.000000
     2.5435      0.000000
     2.5440      0.000000
     2.5445      0.000000
     2.5450      0.000000
     2.5455      0.000000
     2.5460      0.000000
     2.5465      0.000000
     2.5470      0.000000
     2.5475      0.000000
     2.5480      0.000000
     2.5485      0.000000
     2.5490      0.000000
     2.5495      0.000000
     2.5500      0.000000
     2.5505      0.000000
     2.5510      0.000000
     2.5515      0.000000
     2.5520      0.000000
     2.5525      0.000000
     2.5530      0.000000
     2.5535      0.000000
     2.5540      0.000000
     2.5545      0.000000
     2.5550      0.000000
     2.5555      0.000000
     2.5560      0.000000
     2.5565      0.000000
     2.5570      0.000000
     2.5575      0.000000
     2.5580      0.000000
     2.5585      0.000000
     2.5590      0.000000
     2.5595      0.000000
     2.5600      0.000000
     2.5605      0.000000
     2.5610      0.000000
     2.5615      0.000000
     2.5620      0.000000
     2.5625      0.000000
     2.5630      0.000000
     2.5635      0.000000
     2.5640      0.000000
     2.5645      0.000000
     2.5650      0.000000
     2.5655      0.000000
     2.5660      0.000000
     2.5665      0.000000
     2.5670      0.000000
     2.5675      0.000000
     2.5680      0.000000
     2.5685      0.000000
     2.5690      0.000000
     2.5695      0.000000
     2.5700      0.000000
     2.5705      0.000000
     2.5710      0.000000
     2.5715      0.000000
     2.5720      0.000000
     2.5725      0.000000
     2.5730      0.000000
     2.5735      0.000000
     2.5740      0.000000
     2.5745      0.000000
     2.5750      0.000000
     2.5755      0.000000
     2.5760      0.000000
     2.5765      0.000000
     2.5770      0.000000
     2.5775      0.000000
     2.5780      0.000000
     2.5785      0.000000
     2.5790      0.000000
     2.5795      0.000000
     2.5800      0.000000
     2.5805      0.000000
     2.5810      0.000000
     2.5815      0.000000
     2.5820      0.000000
     2.5825      0.000000
     2.5830      0.000000
     2.5835      0.000000
     2.5840      0.000000
     2.5845      0.000000
     2.5850      0.000000
     2.5855      0.000000
     2.5860      0.000000
     2.5865      0.000000
     2.5870      0.000000
     2.5875      0.000000
     2.5880      0.000000
     2.5885      0.000000
     2.5890      0.000000
     2.5895      0.000000
     2.5900      0.000000
     2.5905      0.000000
     2.5910      0.000000
     2.5915      0.000000
     2.5920      0.000000
     2.5925      0.000000
     2.5930      0.000000
     2.5935      0.000000
     2.5940      0.000000
     2.5945      0.000000
     2.5950      0.000000
     2.5955      0.000000
     2.5960      0.000000
     2.5965      0.000000
     2.5970      0.000000
     2.5975      0.000000
     2.5980      0.000000
     2.5985      0.000000
     2.5990      0.000000
     2.5995      0.000000
     2.6000      0.000000
     2.6005      0.000000
     2.6010      0.000000
     2.6015      0.000000
     2.6020      0.000000
     2.6025      0.000000
     2.6030      0.000000
     2.6035      0.000000
     2.6040      0.000000
     2.6045      0.000000
     2.6050      0.000000
     2.6055      0.000000
     2.6060      0.000000
     2.6065      0.000000
     2.6070      0.000000
     2.6075      0.000000
     2.6080      0.000000
     2.6085      0.000000
     2.6090      0.000000
     2.6095      0.000000
     2.6100      0.000000
     2.6105      0.000000
     2.6110      0.000000
     2.6115      0.000000
     2.6120      0.000000
     2.6125      0.000000
     2.6130      0.000000
     2.6135      0.000000
     2.6140      0.000000
     2.6145      0.000000
     2.6150      0.000000
     2.6155      0.000000
     2.6160      0.000000
     2.6165      0.000000
     2.6170      0.000000
     2.6175      0.000000
     2.6180      0.000000
     2.6185      0.000010
     2.6190      0.000070
     2.6195      0.000030
     2.6200      0.000000
     2.6205      0.000000
     2.6210      0.000000
     2.6215      0.000000
     2.6220      0.000000
     2.6225      0.000000
     2.6230      0.000000
     2.6235      0.000000
     2.6240      0.000000
     2.6245      0.000000
     2.6250      0.000000
     2.6255      0.000000
     2.6260      0.000000
     2.6265      0.000000
     2.6270      0.000000
     2.6275      0.000000
     2.6280      0.000000
     2.6285      0.000000
     2.6290      0.000000
     2.6295      0.000000
     2.6300      0.000000
     2.6305      0.000000
     2.6310      0.000000
     2.6315      0.000000
     2.6320      0.000000
     2.6325      0.000000
     2.6330      0.000000
     2.6335      0.000000
     2.6340      0.000000
     2.6345      0.000000
     2.6350      0.000000
     2.6355      0.000000
     2.6360      0.000000
     2.6365      0.000000
     2.6370      0.000000
     2.6375      0.000000
     2.6380      0.000000
     2.6385      0.000000
     2.6390      0.000000
     2.6395      0.000140
     2.6400      0.000340
     2.6405      0.000530
     2.6410      0.000110
     2.6415      0.000000
     2.6420      0.000000
     2.6425      0.000010
     2.6430      0.000150
     2.6435      0.000250
     2.6440      0.000320
     2.6445      0.000340
     2.6450      0.000440
     2.6455      0.000470
     2.6460      0.000430
     2.6465      0.000290
     2.6470      0.000080
     2.6475      0.000000
     2.6480      0.000000
     2.6485      0.000000
     2.6490      0.000000
     2.6495      0.000000
     2.6500      0.000000
     2.6505      0.000000
     2.6510      0.000000
     2.6515      0.000000
     2.6520      0.000000
     2.6525      0.000000
     2.6530      0.000350
     2.6535      0.000760
     2.6540      0.001040
     2.6545      0.000590
     2.6550      0.000220
     2.6555      0.000000
     2.6560      0.000000
     2.6565      0.000000
     2.6570      0.000000
     2.6575      0.000000
     2.6580      0.000000
     2.6585      0.000000
     2.6590      0.000030
     2.6595      0.000070
     2.6600      0.000010
     2.6605      0.000000
     2.6610      0.000000
     2.6615      0.000000
     2.6620      0.000000
     2.6625      0.000000
     2.6630      0.000000
     2.6635      0.000000
     2.6640      0.000000
     2.6645      0.000000
     2.6650      0.000000
     2.6655      0.000000
     2.6660      0.000000
     2.6665      0.000000
     2.6670      0.000000
     2.6675      0.000000
     2.6680      0.000000
     2.6685      0.000000
     2.6690      0.000000
     2.6695      0.000000
     2.6700      0.000000
     2.6705      0.000080
     2.6710      0.000430
     2.6715      0.000760
     2.6720      0.000880
     2.6725      0.000810
     2.6730      0.000820
     2.6735      0.000880
     2.6740      0.000890
     2.6745      0.000780
     2.6750      0.000930
     2.6755      0.001180
     2.6760      0.001360
     2.6765      0.001040
     2.6770      0.000860
     2.6775      0.000930
     2.6780      0.001230
     2.6785      0.001050
     2.6790      0.000800
     2.6795      0.000650
     2.6800      0.000790
     2.6805      0.000730
     2.6810      0.000420
     2.6815      0.000000
     2.6820      0.000000
     2.6825      0.000310
     2.6830      0.000700
     2.6835      0.001060
     2.6840      0.001290
     2.6845      0.001510
     2.6850      0.001670
     2.6855      0.001620
     2.6860      0.001640
     2.6865      0.001610
     2.6870      0.001500
     2.6875      0.001380
     2.6880      0.001620
     2.6885      0.002020
     2.6890      0.002340
     2.6895      0.002400
     2.6900      0.002510
     2.6905      0.002730
     2.6910      0.002700
     2.6915      0.002380
     2.6920      0.002020
     2.6925      0.001940
     2.6930      0.002120
     2.6935      0.002260
     2.6940      0.002310
     2.6945      0.002310
     2.6950      0.002580
     2.6955      0.003060
     2.6960      0.003730
     2.6965      0.003640
     2.6970      0.003220
     2.6975      0.002630
     2.6980      0.003010
     2.6985      0.003680
     2.6990      0.004360
     2.6995      0.004610
     2.7000      0.004640
     2.7005      0.004580
     2.7010      0.004460
     2.7015      0.004280
     2.7020      0.004340
     2.7025      0.004560
     2.7030      0.004840
     2.7035      0.005020
     2.7040      0.005240
     2.7045      0.005540
     2.7050      0.005730
     2.7055      0.005910
     2.7060      0.006060
     2.7065      0.006090
     2.7070      0.005780
     2.7075      0.005600
     2.7080      0.005870
     2.7085      0.006750
     2.7090      0.007310
     2.7095      0.007500
     2.7100      0.007440
     2.7105      0.007750
     2.7110      0.008240
     2.7115      0.008690
     2.7120      0.008790
     2.7125      0.008820
     2.7130      0.008870
     2.7135      0.009570
     2.7140      0.010420
     2.7145      0.011230
     2.7150      0.011350
     2.7155      0.011350
     2.7160      0.011420
     2.7165      0.011760
     2.7170      0.012030
     2.7175      0.012380
     2.7180      0.012850
     2.7185      0.013550
     2.7190      0.014250
     2.7195      0.014970
     2.7200      0.015790
     2.7205      0.016540
     2.7210      0.017200
     2.7215      0.017710
     2.7220      0.018230
     2.7225      0.018590
     2.7230      0.018810
     2.7235      0.018940
     2.7240      0.019560
     2.7245      0.020450
     2.7250      0.021200
     2.7255      0.021600
     2.7260      0.022120
     2.7265      0.023120
     2.7270      0.024400
     2.7275      0.025510
     2.7280      0.026360
     2.7285      0.026770
     2.7290      0.027320
     2.7295      0.028030
     2.7300      0.029140
     2.7305      0.030300
     2.7310      0.031450
     2.7315      0.032570
     2.7320      0.033250
     2.7325      0.033780
     2.7330      0.034210
     2.7335      0.035180
     2.7340      0.036200
     2.7345      0.037240
     2.7350      0.038100
     2.7355      0.039160
     2.7360      0.040370
     2.7365      0.041750
     2.7370      0.043050
     2.7375      0.044350
     2.7380      0.045700
     2.7385      0.046970
     2.7390      0.048180
     2.7395      0.049320
     2.7400      0.050680
     2.7405      0.052170
     2.7410      0.053760
     2.7415      0.055230
     2.7420      0.056240
     2.7425      0.056970
     2.7430      0.057720
     2.7435      0.059070
     2.7440      0.060700
     2.7445      0.062440
     2.7450      0.063940
     2.7455      0.065220
     2.7460      0.066220
     2.7465      0.067230
     2.7470      0.068550
     2.7475      0.070240
     2.7480      0.071690
     2.7485      0.072840
     2.7490      0.073800
     2.7495      0.075410
     2.7500      0.077020
     2.7505      0.078550
     2.7510      0.079700
     2.7515      0.081470
     2.7520      0.083500
     2.7525      0.085510
     2.7530      0.086960
     2.7535      0.088300
     2.7540      0.089750
     2.7545      0.091300
     2.7550      0.092880
     2.7555      0.094470
     2.7560      0.095940
     2.7565      0.097390
     2.7570      0.098820
     2.7575      0.100570
     2.7580      0.102240
     2.7585      0.103800
     2.7590      0.105120
     2.7595      0.106800
     2.7600      0.108790
     2.7605      0.111200
     2.7610      0.113240
     2.7615      0.115020
     2.7620      0.116540
     2.7625      0.118040
     2.7630      0.119490
     2.7635      0.120860
     2.7640      0.122370
     2.7645      0.123910
     2.7650      0.125360
     2.7655      0.127040
     2.7660      0.129000
     2.7665      0.131410
     2.7670      0.133470
     2.7675      0.135230
     2.7680      0.136590
     2.7685      0.138240
     2.7690      0.140160
     2.7695      0.142410
     2.7700      0.144630
     2.7705      0.146810
     2.7710      0.148930
     2.7715      0.151030
     2.7720      0.153080
     2.7725      0.155100
     2.7730      0.157500
     2.7735      0.159890
     2.7740      0.162270
     2.7745      0.164420
     2.7750      0.166640
     2.7755      0.168880
     2.7760      0.170980
     2.7765      0.173310
     2.7770      0.175880
     2.7775      0.178990
     2.7780      0.182000
     2.7785      0.184890
     2.7790      0.187400
     2.7795      0.189820
     2.7800      0.192250
     2.7805      0.195040
     2.7810      0.197970
     2.7815      0.200900
     2.7820      0.203640
     2.7825      0.206430
     2.7830      0.209290
     2.7835      0.212310
     2.7840      0.215340
     2.7845      0.218330
     2.7850      0.221140
     2.7855      0.223920
     2.7860      0.226840
     2.7865      0.230260
     2.7870      0.233980
     2.7875      0.237700
     2.7880      0.240990
     2.7885      0.244030
     2.7890      0.246960
     2.7895      0.249880
     2.7900      0.252880
     2.7905      0.255970
     2.7910      0.259290
     2.7915      0.262530
     2.7920      0.265750
     2.7925      0.269040
     2.7930      0.272520
     2.7935      0.276080
     2.7940      0.279640
     2.7945      0.283240
     2.7950      0.286790
     2.7955      0.290070
     2.7960      0.293320
     2.7965      0.296640
     2.7970      0.300240
     2.7975      0.304030
     2.7980      0.307910
     2.7985      0.311800
     2.7990      0.315510
     2.7995      0.319130
     2.8000      0.322810
     2.8005      0.326200
     2.8010      0.329380
     2.8015      0.332200
     2.8020      0.335410
     2.8025      0.338880
     2.8030      0.342450
     2.8035      0.345680
     2.8040      0.348650
     2.8045      0.351350
     2.8050      0.354250
     2.8055      0.357310
     2.8060      0.360490
     2.8065      0.363550
     2.8070      0.366520
     2.8075      0.369540
     2.8080      0.372480
     2.8085      0.375340
     2.8090      0.378010
     2.8095      0.380630
     2.8100      0.383180
     2.8105      0.385730
     2.8110      0.388220
     2.8115      0.390600
     2.8120      0.392600
     2.8125      0.394640
     2.8130      0.396910
     2.8135      0.399460
     2.8140      0.402020
     2.8145      0.404420
     2.8150      0.406470
     2.8155      0.408230
     2.8160      0.409340
     2.8165      0.410400
     2.8170      0.411510
     2.8175      0.413040
     2.8180      0.414550
     2.8185      0.416020
     2.8190      0.417190
     2.8195      0.418190
     2.8200      0.419060
     2.8205      0.420240
     2.8210      0.421400
     2.8215      0.422530
     2.8220      0.423040
     2.8225      0.423600
     2.8230      0.424280
     2.8235      0.425190
     2.8240      0.425920
     2.8245      0.426290
     2.8250      0.426160
     2.8255      0.425930
     2.8260      0.425710
     2.8265      0.425630
     2.8270      0.425580
     2.8275      0.425490
     2.8280      0.425270
     2.8285      0.424940
     2.8290      0.424270
     2.8295      0.423570
     2.8300      0.422850
     2.8305      0.422380
     2.8310      0.422010
     2.8315      0.421770
     2.8320      0.421470
     2.8325      0.420890
     2.8330      0.419890
     2.8335      0.418560
     2.8340      0.417220
     2.8345      0.415980
     2.8350      0.415000
     2.8355      0.414170
     2.8360      0.413570
     2.8365      0.412630
     2.8370      0.411440
     2.8375      0.409760
     2.8380      0.408230
     2.8385      0.406820
     2.8390      0.405770
     2.8395      0.404700
     2.8400      0.403570
     2.8405      0.402370
     2.8410      0.401200
     2.8415      0.400090
     2.8420      0.398720
     2.8425      0.397190
     2.8430      0.395390
     2.8435      0.393710
     2.8440      0.392100
     2.8445      0.390680
     2.8450      0.389150
     2.8455      0.387520
     2.8460      0.385790
     2.8465      0.384290
     2.8470      0.383160
     2.8475      0.381870
     2.8480      0.380310
     2.8485      0.378110
     2.8490      0.376120
     2.8495      0.374330
     2.8500      0.373230
     2.8505      0.372290
     2.8510      0.371460
     2.8515      0.370350
     2.8520      0.369080
     2.8525      0.367600
     2.8530      0.365820
     2.8535      0.363910
     2.8540      0.361760
     2.8545      0.359930
     2.8550      0.358330
     2.8555      0.357280
     2.8560      0.356280
     2.8565      0.355300
     2.8570      0.353750
     2.8575      0.352050
     2.8580      0.350160
     2.8585      0.348790
     2.8590      0.347530
     2.8595      0.346310
     2.8600      0.344870
     2.8605      0.343390
     2.8610      0.342360
     2.8615      0.341240
     2.8620      0.340050
     2.8625      0.338200
     2.8630      0.336550
     2.8635      0.335260
     2.8640      0.334570
     2.8645      0.333790
     2.8650      0.332270
     2.8655      0.330300
     2.8660      0.328160
     2.8665      0.327160
     2.8670      0.326320
     2.8675      0.325650
     2.8680      0.324310
     2.8685      0.322960
     2.8690      0.321770
     2.8695      0.320770
     2.8700      0.319850
     2.8705      0.319050
     2.8710      0.318360
     2.8715      0.317770
     2.8720      0.316630
     2.8725      0.315360
     2.8730      0.313890
     2.8735      0.312850
     2.8740      0.311940
     2.8745      0.311040
     2.8750      0.309890
     2.8755      0.308550
     2.8760      0.307890
     2.8765      0.307450
     2.8770      0.307360
     2.8775      0.306530
     2.8780      0.305510
     2.8785      0.304480
     2.8790      0.303930
     2.8795      0.303690
     2.8800      0.302810
     2.8805      0.301850
     2.8810      0.300780
     2.8815      0.300280
     2.8820      0.299910
     2.8825      0.299480
     2.8830      0.299120
     2.8835      0.298810
     2.8840      0.298680
     2.8845      0.298410
     2.8850      0.297890
     2.8855      0.297430
     2.8860      0.296980
     2.8865      0.296480
     2.8870      0.295690
     2.8875      0.294670
     2.8880      0.293950
     2.8885      0.293510
     2.8890      0.293540
     2.8895      0.293580
     2.8900      0.293600
     2.8905      0.293540
     2.8910      0.293570
     2.8915      0.293690
     2.8920      0.293690
     2.8925      0.293670
     2.8930      0.293590
     2.8935      0.293380
     2.8940      0.293090
     2.8945      0.292550
     2.8950      0.292240
     2.8955      0.292220
     2.8960      0.292560
     2.8965      0.292880
     2.8970      0.292880
     2.8975      0.292820
     2.8980      0.292710
     2.8985      0.292730
     2.8990      0.292560
     2.8995      0.292040
     2.9000      0.291490
     2.9005      0.291030
     2.9010      0.291300
     2.9015      0.291840
     2.9020      0.292650
     2.9025      0.293590
     2.9030      0.294450
     2.9035      0.295010
     2.9040      0.295190
     2.9045      0.295140
     2.9050      0.295350
     2.9055      0.295700
     2.9060      0.296310
     2.9065      0.296660
     2.9070      0.296930
     2.9075      0.297150
     2.9080      0.297700
     2.9085      0.298610
     2.9090      0.299720
     2.9095      0.300810
     2.9100      0.301750
     2.9105      0.302730
     2.9110      0.303740
     2.9115      0.304570
     2.9120      0.305250
     2.9125      0.305590
     2.9130      0.305950
     2.9135      0.306350
     2.9140      0.307430
     2.9145      0.308510
     2.9150      0.309600
     2.9155      0.310250
     2.9160      0.310810
     2.9165      0.311770
     2.9170      0.312840
     2.9175      0.314030
     2.9180      0.314790
     2.9185      0.315530
     2.9190      0.316510
     2.9195      0.317800
     2.9200      0.319330
     2.9205      0.320760
     2.9210      0.322110
     2.9215      0.323270
     2.9220      0.324540
     2.9225      0.325850
     2.9230      0.327480
     2.9235      0.329090
     2.9240      0.330630
     2.9245      0.331950
     2.9250      0.333170
     2.9255      0.334790
     2.9260      0.336670
     2.9265      0.339010
     2.9270      0.341150
     2.9275      0.343190
     2.9280      0.344720
     2.9285      0.346230
     2.9290      0.347680
     2.9295      0.349320
     2.9300      0.351040
     2.9305      0.352980
     2.9310      0.354900
     2.9315      0.356820
     2.9320      0.359050
     2.9325      0.361420
     2.9330      0.364070
     2.9335      0.366670
     2.9340      0.369220
     2.9345      0.371650
     2.9350      0.373980
     2.9355      0.375840
     2.9360      0.377710
     2.9365      0.379580
     2.9370      0.381910
     2.9375      0.384400
     2.9380      0.387190
     2.9385      0.389940
     2.9390      0.392660
     2.9395      0.395120
     2.9400      0.397560
     2.9405      0.400180
     2.9410      0.402760
     2.9415      0.405310
     2.9420      0.408070
     2.9425      0.410980
     2.9430      0.414470
     2.9435      0.417840
     2.9440      0.421080
     2.9445      0.424480
     2.9450      0.427910
     2.9455      0.431320
     2.9460      0.434330
     2.9465      0.436910
     2.9470      0.439440
     2.9475      0.442030
     2.9480      0.445130
     2.9485      0.448480
     2.9490      0.452140
     2.9495      0.455920
     2.9500      0.459740
     2.9505      0.463700
     2.9510      0.467530
     2.9515      0.471180
     2.9520      0.474590
     2.9525      0.477940
     2.9530      0.482010
     2.9535      0.486090
     2.9540      0.490200
     2.9545      0.493950
     2.9550      0.497530
     2.9555      0.501120
     2.9560      0.504710
     2.9565      0.508330
     2.9570      0.512140
     2.9575      0.516060
     2.9580      0.520260
     2.9585      0.524540
     2.9590      0.529000
     2.9595      0.533530
     2.9600      0.538120
     2.9605      0.542490
     2.9610      0.546730
     2.9615      0.550520
     2.9620      0.554130
     2.9625      0.557560
     2.9630      0.561450
     2.9635      0.565480
     2.9640      0.569800
     2.9645      0.574020
     2.9650      0.578090
     2.9655      0.582370
     2.9660      0.586720
     2.9665      0.591040
     2.9670      0.595120
     2.9675      0.598720
     2.9680      0.602510
     2.9685      0.606410
     2.9690      0.610670
     2.9695      0.614820
     2.9700      0.618500
     2.9705      0.622330
     2.9710      0.626300
     2.9715      0.630230
     2.9720      0.634040
     2.9725      0.637140
     2.9730      0.640560
     2.9735      0.644390
     2.9740      0.648350
     2.9745      0.652340
     2.9750      0.655730
     2.9755      0.659140
     2.9760      0.662600
     2.9765      0.665640
     2.9770      0.668380
     2.9775      0.670990
     2.9780      0.673620
     2.9785      0.676420
     2.9790      0.678790
     2.9795      0.680690
     2.9800      0.682890
     2.9805      0.685220
     2.9810      0.688340
     2.9815      0.691050
     2.9820      0.692990
     2.9825      0.694570
     2.9830      0.695940
     2.9835      0.697990
     2.9840      0.699990
     2.9845      0.701420
     2.9850      0.702560
     2.9855      0.703360
     2.9860      0.704550
     2.9865      0.705860
     2.9870      0.706450
     2.9875      0.706760
     2.9880      0.706420
     2.9885      0.706270
     2.9890      0.706240
     2.9895      0.706590
     2.9900      0.706980
     2.9905      0.707250
     2.9910      0.707340
     2.9915      0.707160
     2.9920      0.706710
     2.9925      0.706130
     2.9930      0.704950
     2.9935      0.703630
     2.9940      0.701990
     2.9945      0.700420
     2.9950      0.698930
     2.9955      0.697430
     2.9960      0.695930
     2.9965      0.694310
     2.9970      0.692750
     2.9975      0.691300
     2.9980      0.689680
     2.9985      0.687930
     2.9990      0.685420
     2.9995      0.682770
     3.0000      0.680140
     3.0005      0.677570
     3.0010      0.675130
     3.0015      0.672420
     3.0020      0.669560
     3.0025      0.666920
     3.0030      0.664280
     3.0035      0.661590
     3.0040      0.658600
     3.0045      0.655230
     3.0050      0.651860
     3.0055      0.648490
     3.0060      0.645200
     3.0065      0.641850
     3.0070      0.638300
     3.0075      0.634730
     3.0080      0.631150
     3.0085      0.627660
     3.0090      0.624200
     3.0095      0.620580
     3.0100      0.616940
     3.0105      0.613280
     3.0110      0.609820
     3.0115      0.606580
     3.0120      0.603180
     3.0125      0.599730
     3.0130      0.595850
     3.0135      0.591990
     3.0140      0.588280
     3.0145      0.584540
     3.0150      0.580770
     3.0155      0.576840
     3.0160      0.572860
     3.0165      0.568960
     3.0170      0.565050
     3.0175      0.561110
     3.0180      0.557360
     3.0185      0.553840
     3.0190      0.550650
     3.0195      0.547610
     3.0200      0.543850
     3.0205      0.539980
     3.0210      0.535770
     3.0215      0.531940
     3.0220      0.528650
     3.0225      0.525310
     3.0230      0.521940
     3.0235      0.518190
     3.0240      0.514500
     3.0245      0.511500
     3.0250      0.508450
     3.0255      0.505290
     3.0260      0.501810
     3.0265      0.498100
     3.0270      0.494880
     3.0275      0.491770
     3.0280      0.488610
     3.0285      0.485420
     3.0290      0.482150
     3.0295      0.479150
     3.0300      0.476390
     3.0305      0.473680
     3.0310      0.471000
     3.0315      0.468180
     3.0320      0.465330
     3.0325      0.462400
     3.0330      0.459420
     3.0335      0.456390
     3.0340      0.453440
     3.0345      0.450520
     3.0350      0.447940
     3.0355      0.445400
     3.0360      0.442810
     3.0365      0.440150
     3.0370      0.437360
     3.0375      0.434870
     3.0380      0.432610
     3.0385      0.430480
     3.0390      0.428390
     3.0395      0.426480
     3.0400      0.424580
     3.0405      0.422700
     3.0410      0.420560
     3.0415      0.418070
     3.0420      0.415890
     3.0425      0.413870
     3.0430      0.411890
     3.0435      0.409850
     3.0440      0.406900
     3.0445      0.404080
     3.0450      0.401540
     3.0455      0.399640
     3.0460      0.398400
     3.0465      0.397680
     3.0470      0.397180
     3.0475      0.396250
     3.0480      0.395140
     3.0485      0.393100
     3.0490      0.391010
     3.0495      0.388840
     3.0500      0.387160
     3.0505      0.385900
     3.0510      0.384890
     3.0515      0.383950
     3.0520      0.382630
     3.0525      0.381330
     3.0530      0.380250
     3.0535      0.379230
     3.0540      0.378320
     3.0545      0.377340
     3.0550      0.376300
     3.0555      0.375380
     3.0560      0.374490
     3.0565      0.373400
     3.0570      0.372270
     3.0575      0.370970
     3.0580      0.369620
     3.0585      0.368170
     3.0590      0.366970
     3.0595      0.365960
     3.0600      0.365460
     3.0605      0.365130
     3.0610      0.364620
     3.0615      0.364090
     3.0620      0.363550
     3.0625      0.362890
     3.0630      0.361970
     3.0635      0.361090
     3.0640      0.360260
     3.0645      0.360310
     3.0650      0.360740
     3.0655      0.360740
     3.0660      0.360630
     3.0665      0.359870
     3.0670      0.359300
     3.0675      0.359240
     3.0680      0.359140
     3.0685      0.359000
     3.0690      0.358720
     3.0695      0.358370
     3.0700      0.358510
     3.0705      0.358770
     3.0710      0.359110
     3.0715      0.359350
     3.0720      0.359170
     3.0725      0.359000
     3.0730      0.358870
     3.0735      0.358990
     3.0740      0.359340
     3.0745      0.359690
     3.0750      0.360040
     3.0755      0.360410
     3.0760      0.360800
     3.0765      0.361520
     3.0770      0.362180
     3.0775      0.362650
     3.0780      0.363040
     3.0785      0.363320
     3.0790      0.363680
     3.0795      0.364110
     3.0800      0.364500
     3.0805      0.364880
     3.0810      0.365720
     3.0815      0.366630
     3.0820      0.367790
     3.0825      0.368870
     3.0830      0.369730
     3.0835      0.370600
     3.0840      0.371460
     3.0845      0.372210
     3.0850      0.372890
     3.0855      0.373560
     3.0860      0.374240
     3.0865      0.375150
     3.0870      0.376110
     3.0875      0.377340
     3.0880      0.378680
     3.0885      0.380350
     3.0890      0.381900
     3.0895      0.383280
     3.0900      0.384390
     3.0905      0.385290
     3.0910      0.386460
     3.0915      0.387710
     3.0920      0.389460
     3.0925      0.391260
     3.0930      0.393050
     3.0935      0.394790
     3.0940      0.396340
     3.0945      0.397850
     3.0950      0.399320
     3.0955      0.400930
     3.0960      0.402670
     3.0965      0.404670
     3.0970      0.406800
     3.0975      0.408880
     3.0980      0.410940
     3.0985      0.412820
     3.0990      0.414680
     3.0995      0.416500
     3.1000      0.418390
     3.1005      0.420480
     3.1010      0.422590
     3.1015      0.424740
     3.1020      0.426690
     3.1025      0.428460
     3.1030      0.430500
     3.1035      0.432670
     3.1040      0.435380
     3.1045      0.438210
     3.1050      0.441450
     3.1055      0.444700
     3.1060      0.447860
     3.1065      0.450730
     3.1070      0.452680
     3.1075      0.454550
     3.1080      0.456300
     3.1085      0.458670
     3.1090      0.461610
     3.1095      0.464880
     3.1100      0.468300
     3.1105      0.471400
     3.1110      0.474400
     3.1115      0.477070
     3.1120      0.479730
     3.1125      0.482540
     3.1130      0.485340
     3.1135      0.488090
     3.1140      0.490780
     3.1145      0.493370
     3.1150      0.496330
     3.1155      0.499770
     3.1160      0.503430
     3.1165      0.507250
     3.1170      0.510430
     3.1175      0.513350
     3.1180      0.516440
     3.1185      0.519570
     3.1190      0.523650
     3.1195      0.527760
     3.1200      0.531710
     3.1205      0.535590
     3.1210      0.539190
     3.1215      0.542750
     3.1220      0.546260
     3.1225      0.549660
     3.1230      0.552920
     3.1235      0.556260
     3.1240      0.559660
     3.1245      0.563200
     3.1250      0.566800
     3.1255      0.570550
     3.1260      0.574340
     3.1265      0.578440
     3.1270      0.582560
     3.1275      0.586560
     3.1280      0.590480
     3.1285      0.594000
     3.1290      0.597500
     3.1295      0.600940
     3.1300      0.604380
     3.1305      0.607830
     3.1310      0.611200
     3.1315      0.614490
     3.1320      0.617870
     3.1325      0.621320
     3.1330      0.624840
     3.1335      0.628390
     3.1340      0.631970
     3.1345      0.635560
     3.1350      0.639130
     3.1355      0.642690
     3.1360      0.645930
     3.1365      0.649220
     3.1370      0.652950
     3.1375      0.656770
     3.1380      0.660920
     3.1385      0.664740
     3.1390      0.667860
     3.1395      0.670810
     3.1400      0.673550
     3.1405      0.676360
     3.1410      0.679240
     3.1415      0.681770
     3.1420      0.684070
     3.1425      0.686400
     3.1430      0.688730
     3.1435      0.691320
     3.1440      0.693970
     3.1445      0.696370
     3.1450      0.698730
     3.1455      0.700640
     3.1460      0.702540
     3.1465      0.704380
     3.1470      0.706280
     3.1475      0.708510
     3.1480      0.710660
     3.1485      0.712570
     3.1490      0.714070
     3.1495      0.714820
     3.1500      0.715480
     3.1505      0.716030
     3.1510      0.716870
     3.1515      0.717970
     3.1520      0.718920
     3.1525      0.719780
     3.1530      0.720530
     3.1535      0.721220
     3.1540      0.721850
     3.1545      0.722460
     3.1550      0.722170
     3.1555      0.721730
     3.1560      0.720880
     3.1565      0.720000
     3.1570      0.719280
     3.1575      0.718560
     3.1580      0.717850
     3.1585      0.717170
     3.1590      0.716710
     3.1595      0.716070
     3.1600      0.714870
     3.1605      0.713470
     3.1610      0.711660
     3.1615      0.710010
     3.1620      0.708640
     3.1625      0.707130
     3.1630      0.705450
     3.1635      0.703620
     3.1640      0.701660
     3.1645      0.699890
     3.1650      0.698260
     3.1655      0.696570
     3.1660      0.694850
     3.1665      0.692470
     3.1670      0.689840
     3.1675      0.686510
     3.1680      0.682990
     3.1685      0.679910
     3.1690      0.676880
     3.1695      0.674470
     3.1700      0.672090
     3.1705      0.668950
     3.1710      0.665760
     3.1715      0.661870
     3.1720      0.658060
     3.1725      0.654800
     3.1730      0.651650
     3.1735      0.648940
     3.1740      0.646120
     3.1745      0.642920
     3.1750      0.639570
     3.1755      0.635870
     3.1760      0.632180
     3.1765      0.628490
     3.1770      0.624960
     3.1775      0.621660
     3.1780      0.618190
     3.1785      0.614510
     3.1790      0.610400
     3.1795      0.605870
     3.1800      0.601600
     3.1805      0.597530
     3.1810      0.593890
     3.1815      0.590520
     3.1820      0.587220
     3.1825      0.583960
     3.1830      0.580660
     3.1835      0.577330
     3.1840      0.573610
     3.1845      0.569750
     3.1850      0.565380
     3.1855      0.560860
     3.1860      0.556330
     3.1865      0.551790
     3.1870      0.547770
     3.1875      0.543820
     3.1880      0.540120
     3.1885      0.536450
     3.1890      0.532850
     3.1895      0.529250
     3.1900      0.525570
     3.1905      0.521890
     3.1910      0.518000
     3.1915      0.514140
     3.1920      0.510640
     3.1925      0.507170
     3.1930      0.503930
     3.1935      0.500670
     3.1940      0.497290
     3.1945      0.493880
     3.1950      0.490370
     3.1955      0.486860
     3.1960      0.483330
     3.1965      0.479850
     3.1970      0.476560
     3.1975      0.473240
     3.1980      0.469840
     3.1985      0.466460
     3.1990      0.463110
     3.1995      0.459890
     3.2000      0.456960
     3.2005      0.454020
     3.2010      0.451060
     3.2015      0.448100
     3.2020      0.445130
     3.2025      0.442240
     3.2030      0.439480
     3.2035      0.436670
     3.2040      0.433800
     3.2045      0.430900
     3.2050      0.427960
     3.2055      0.425120
     3.2060      0.422410
     3.2065      0.419870
     3.2070      0.417550
     3.2075      0.415370
     3.2080      0.413360
     3.2085      0.411160
     3.2090      0.408770
     3.2095      0.406040
     3.2100      0.402990
     3.2105      0.400010
     3.2110      0.397090
     3.2115      0.394420
     3.2120      0.391990
     3.2125      0.389730
     3.2130      0.387610
     3.2135      0.385460
     3.2140      0.383280
     3.2145      0.380950
     3.2150      0.378490
     3.2155      0.376080
     3.2160      0.373710
     3.2165      0.371610
     3.2170      0.369710
     3.2175      0.368130
     3.2180      0.366780
     3.2185      0.365310
     3.2190      0.363770
     3.2195      0.361950
     3.2200      0.359930
     3.2205      0.358170
     3.2210      0.356600
     3.2215      0.355090
     3.2220      0.353620
     3.2225      0.351860
     3.2230      0.349890
     3.2235      0.348100
     3.2240      0.346440
     3.2245      0.345000
     3.2250      0.343720
     3.2255      0.342370
     3.2260      0.340960
     3.2265      0.339530
     3.2270      0.338070
     3.2275      0.336590
     3.2280      0.335100
     3.2285      0.333680
     3.2290      0.332320
     3.2295      0.331170
     3.2300      0.330220
     3.2305      0.329220
     3.2310      0.328170
     3.2315      0.326940
     3.2320      0.325530
     3.2325      0.324260
     3.2330      0.323140
     3.2335      0.322140
     3.2340      0.321250
     3.2345      0.320240
     3.2350      0.319080
     3.2355      0.317930
     3.2360      0.316780
     3.2365      0.315650
     3.2370      0.314560
     3.2375      0.313530
     3.2380      0.312570
     3.2385      0.311730
     3.2390      0.311100
     3.2395      0.310440
     3.2400      0.309720
     3.2405      0.308950
     3.2410      0.308070
     3.2415      0.307300
     3.2420      0.306790
     3.2425      0.306330
     3.2430      0.305970
     3.2435      0.305510
     3.2440      0.304770
     3.2445      0.304050
     3.2450      0.303450
     3.2455      0.302900
     3.2460      0.302560
     3.2465      0.302210
     3.2470      0.301860
     3.2475      0.301560
     3.2480      0.301650
     3.2485      0.301720
     3.2490      0.301540
     3.2495      0.301350
     3.2500      0.300940
     3.2505      0.300540
     3.2510      0.300920
     3.2515      0.301310
     3.2520      0.301150
     3.2525      0.300980
     3.2530      0.300240
     3.2535      0.299460
     3.2540      0.299340
     3.2545      0.299300
     3.2550      0.299310
     3.2555      0.299320
     3.2560      0.299200
     3.2565      0.299040
     3.2570      0.298880
     3.2575      0.298720
     3.2580      0.298500
     3.2585      0.298260
     3.2590      0.298370
     3.2595      0.298660
     3.2600      0.299080
     3.2605      0.299590
     3.2610      0.299840
     3.2615      0.299880
     3.2620      0.299840
     3.2625      0.299690
     3.2630      0.299640
     3.2635      0.299700
     3.2640      0.299900
     3.2645      0.300280
     3.2650      0.300820
     3.2655      0.301640
     3.2660      0.302460
     3.2665      0.303290
     3.2670      0.303970
     3.2675      0.304190
     3.2680      0.304370
     3.2685      0.304400
     3.2690      0.304470
     3.2695      0.304890
     3.2700      0.305330
     3.2705      0.306200
     3.2710      0.307070
     3.2715      0.308070
     3.2720      0.309070
     3.2725      0.309810
     3.2730      0.310530
     3.2735      0.311360
     3.2740      0.312210
     3.2745      0.313100
     3.2750      0.314010
     3.2755      0.314720
     3.2760      0.315360
     3.2765      0.316420
     3.2770      0.317690
     3.2775      0.319040
     3.2780      0.320450
     3.2785      0.321240
     3.2790      0.321450
     3.2795      0.321760
     3.2800      0.322200
     3.2805      0.322990
     3.2810      0.324380
     3.2815      0.325580
     3.2820      0.326310
     3.2825      0.326940
     3.2830      0.327260
     3.2835      0.327660
     3.2840      0.328620
     3.2845      0.329600
     3.2850      0.330930
     3.2855      0.332250
     3.2860      0.333480
     3.2865      0.334710
     3.2870      0.335970
     3.2875      0.337240
     3.2880      0.338880
     3.2885      0.340600
     3.2890      0.342150
     3.2895      0.343630
     3.2900      0.344840
     3.2905      0.345890
     3.2910      0.347250
     3.2915      0.348850
     3.2920      0.350500
     3.2925      0.352220
     3.2930      0.353820
     3.2935      0.355190
     3.2940      0.356570
     3.2945      0.357990
     3.2950      0.359440
     3.2955      0.361030
     3.2960      0.362650
     3.2965      0.364700
     3.2970      0.366740
     3.2975      0.368970
     3.2980      0.371200
     3.2985      0.373020
     3.2990      0.374790
     3.2995      0.376400
     3.3000      0.377960
     3.3005      0.379750
     3.3010      0.381650
     3.3015      0.383510
     3.3020      0.385340
     3.3025      0.387030
     3.3030      0.388560
     3.3035      0.390360
     3.3040      0.392550
     3.3045      0.394940
     3.3050      0.397830
     3.3055      0.400630
     3.3060      0.403040
     3.3065      0.405410
     3.3070      0.407380
     3.3075      0.409350
     3.3080      0.411480
     3.3085      0.413620
     3.3090      0.415630
     3.3095      0.417620
     3.3100      0.419800
     3.3105      0.422050
     3.3110      0.424890
     3.3115      0.428090
     3.3120      0.431050
     3.3125      0.433790
     3.3130      0.436160
     3.3135      0.437960
     3.3140      0.439820
     3.3145      0.441870
     3.3150      0.443950
     3.3155      0.446230
     3.3160      0.448510
     3.3165      0.451210
     3.3170      0.453910
     3.3175      0.456710
     3.3180      0.459520
     3.3185      0.462120
     3.3190      0.464670
     3.3195      0.467610
     3.3200      0.470750
     3.3205      0.473680
     3.3210      0.476430
     3.3215      0.478880
     3.3220      0.480920
     3.3225      0.483130
     3.3230      0.485810
     3.3235      0.488500
     3.3240      0.491260
     3.3245      0.494020
     3.3250      0.496490
     3.3255      0.498960
     3.3260      0.501990
     3.3265      0.505090
     3.3270      0.508410
     3.3275      0.511800
     3.3280      0.514850
     3.3285      0.517690
     3.3290      0.520520
     3.3295      0.523350
     3.3300      0.526300
     3.3305      0.529440
     3.3310      0.532520
     3.3315      0.535320
     3.3320      0.538100
     3.3325      0.540640
     3.3330      0.543170
     3.3335      0.545710
     3.3340      0.548250
     3.3345      0.550850
     3.3350      0.553480
     3.3355      0.556310
     3.3360      0.559260
     3.3365      0.562200
     3.3370      0.565130
     3.3375      0.567900
     3.3380      0.570360
     3.3385      0.572730
     3.3390      0.574720
     3.3395      0.576710
     3.3400      0.578950
     3.3405      0.581180
     3.3410      0.584070
     3.3415      0.587050
     3.3420      0.589810
     3.3425      0.592510
     3.3430      0.594910
     3.3435      0.597100
     3.3440      0.599410
     3.3445      0.601860
     3.3450      0.604230
     3.3455      0.606360
     3.3460      0.608440
     3.3465      0.610180
     3.3470      0.611930
     3.3475      0.614050
     3.3480      0.616200
     3.3485      0.618360
     3.3490      0.620520
     3.3495      0.622660
     3.3500      0.624790
     3.3505      0.626940
     3.3510      0.629110
     3.3515      0.631030
     3.3520      0.632350
     3.3525      0.633610
     3.3530      0.634480
     3.3535      0.635340
     3.3540      0.636600
     3.3545      0.637870
     3.3550      0.638970
     3.3555      0.640020
     3.3560      0.641070
     3.3565      0.642110
     3.3570      0.643420
     3.3575      0.645050
     3.3580      0.646630
     3.3585      0.648070
     3.3590      0.649420
     3.3595      0.650070
     3.3600      0.650730
     3.3605      0.650700
     3.3610      0.650610
     3.3615      0.650640
     3.3620      0.650700
     3.3625      0.650960
     3.3630      0.651360
     3.3635      0.651490
     3.3640      0.651170
     3.3645      0.650910
     3.3650      0.650860
     3.3655      0.650820
     3.3660      0.651540
     3.3665      0.652260
     3.3670      0.652230
     3.3675      0.652040
     3.3680      0.651360
     3.3685      0.650410
     3.3690      0.649710
     3.3695      0.649330
     3.3700      0.648980
     3.3705      0.648750
     3.3710      0.648460
     3.3715      0.647500
     3.3720      0.646540
     3.3725      0.645600
     3.3730      0.644670
     3.3735      0.643960
     3.3740      0.643350
     3.3745      0.642370
     3.3750      0.641010
     3.3755      0.639500
     3.3760      0.637600
     3.3765      0.635770
     3.3770      0.634500
     3.3775      0.633230
     3.3780      0.632500
     3.3785      0.631830
     3.3790      0.630650
     3.3795      0.629240
     3.3800      0.627370
     3.3805      0.625030
     3.3810      0.622730
     3.3815      0.620510
     3.3820      0.618320
     3.3825      0.616320
     3.3830      0.614320
     3.3835      0.612370
     3.3840      0.610430
     3.3845      0.608580
     3.3850      0.606790
     3.3855      0.605010
     3.3860      0.603240
     3.3865      0.601300
     3.3870      0.598840
     3.3875      0.596370
     3.3880      0.593570
     3.3885      0.590760
     3.3890      0.589050
     3.3895      0.587560
     3.3900      0.586450
     3.3905      0.585570
     3.3910      0.584340
     3.3915      0.582570
     3.3920      0.580660
     3.3925      0.578110
     3.3930      0.575560
     3.3935      0.572710
     3.3940      0.569840
     3.3945      0.567220
     3.3950      0.564690
     3.3955      0.562340
     3.3960      0.560150
     3.3965      0.557890
     3.3970      0.555430
     3.3975      0.552940
     3.3980      0.550000
     3.3985      0.547050
     3.3990      0.544530
     3.3995      0.542110
     3.4000      0.540100
     3.4005      0.538370
     3.4010      0.536280
     3.4015      0.533590
     3.4020      0.530910
     3.4025      0.528290
     3.4030      0.525670
     3.4035      0.524130
     3.4040      0.522700
     3.4045      0.520880
     3.4050      0.518880
     3.4055      0.516500
     3.4060      0.513660
     3.4065      0.510760
     3.4070      0.507600
     3.4075      0.504450
     3.4080      0.501320
     3.4085      0.498190
     3.4090      0.495790
     3.4095      0.493660
     3.4100      0.491870
     3.4105      0.490440
     3.4110      0.488880
     3.4115      0.486940
     3.4120      0.485000
     3.4125      0.482590
     3.4130      0.480170
     3.4135      0.477890
     3.4140      0.475650
     3.4145      0.473600
     3.4150      0.471730
     3.4155      0.469990
     3.4160      0.468630
     3.4165      0.467280
     3.4170      0.465730
     3.4175      0.464170
     3.4180      0.461940
     3.4185      0.459480
     3.4190      0.456970
     3.4195      0.454390
     3.4200      0.451940
     3.4205      0.449870
     3.4210      0.447790
     3.4215      0.445940
     3.4220      0.444090
     3.4225      0.442180
     3.4230      0.440260
     3.4235      0.438520
     3.4240      0.437010
     3.4245      0.435550
     3.4250      0.434320
     3.4255      0.433100
     3.4260      0.431540
     3.4265      0.429960
     3.4270      0.428510
     3.4275      0.427110
     3.4280      0.425730
     3.4285      0.424360
     3.4290      0.422890
     3.4295      0.420770
     3.4300      0.418650
     3.4305      0.416160
     3.4310      0.413620
     3.4315      0.411340
     3.4320      0.409220
     3.4325      0.407370
     3.4330      0.406060
     3.4335      0.404770
     3.4340      0.403760
     3.4345      0.402760
     3.4350      0.401560
     3.4355      0.400320
     3.4360      0.398870
     3.4365      0.397220
     3.4370      0.395640
     3.4375      0.394330
     3.4380      0.393010
     3.4385      0.392340
     3.4390      0.391700
     3.4395      0.390630
     3.4400      0.389350
     3.4405      0.387780
     3.4410      0.385770
     3.4415      0.383820
     3.4420      0.382300
     3.4425      0.380790
     3.4430      0.379850
     3.4435      0.379040
     3.4440      0.378190
     3.4445      0.377290
     3.4450      0.376260
     3.4455      0.374820
     3.4460      0.373390
     3.4465      0.372330
     3.4470      0.371290
     3.4475      0.370710
     3.4480      0.370360
     3.4485      0.369710
     3.4490      0.368560
     3.4495      0.367350
     3.4500      0.365380
     3.4505      0.363410
     3.4510      0.362340
     3.4515      0.361520
     3.4520      0.360970
     3.4525      0.360700
     3.4530      0.360280
     3.4535      0.359200
     3.4540      0.358120
     3.4545      0.357290
     3.4550      0.356500
     3.4555      0.355850
     3.4560      0.355290
     3.4565      0.354660
     3.4570      0.353830
     3.4575      0.353000
     3.4580      0.352190
     3.4585      0.351390
     3.4590      0.350270
     3.4595      0.349000
     3.4600      0.347780
     3.4605      0.346650
     3.4610      0.345560
     3.4615      0.345280
     3.4620      0.345000
     3.4625      0.344700
     3.4630      0.344410
     3.4635      0.343950
     3.4640      0.343290
     3.4645      0.342650
     3.4650      0.342150
     3.4655      0.341650
     3.4660      0.341130
     3.4665      0.340590
     3.4670      0.339910
     3.4675      0.339040
     3.4680      0.338240
     3.4685      0.337740
     3.4690      0.337230
     3.4695      0.336990
     3.4700      0.336790
     3.4705      0.336240
     3.4710      0.335360
     3.4715      0.334500
     3.4720      0.333750
     3.4725      0.333010
     3.4730      0.333390
     3.4735      0.333950
     3.4740      0.334500
     3.4745      0.335050
     3.4750      0.335380
     3.4755      0.334960
     3.4760      0.334540
     3.4765      0.333690
     3.4770      0.332790
     3.4775      0.331810
     3.4780      0.330760
     3.4785      0.329900
     3.4790      0.329710
     3.4795      0.329530
     3.4800      0.329920
     3.4805      0.330390
     3.4810      0.330330
     3.4815      0.329830
     3.4820      0.329220
     3.4825      0.328180
     3.4830      0.327150
     3.4835      0.326820
     3.4840      0.326590
     3.4845      0.326760
     3.4850      0.327290
     3.4855      0.327830
     3.4860      0.328390
     3.4865      0.328950
     3.4870      0.328830
     3.4875      0.328590
     3.4880      0.327910
     3.4885      0.326770
     3.4890      0.325780
     3.4895      0.325560
     3.4900      0.325340
     3.4905      0.326700
     3.4910      0.328450
     3.4915      0.330010
     3.4920      0.331360
     3.4925      0.332530
     3.4930      0.332280
     3.4935      0.332030
     3.4940      0.331900
     3.4945      0.331800
     3.4950      0.331590
     3.4955      0.331190
     3.4960      0.330760
     3.4965      0.329470
     3.4970      0.328190
     3.4975      0.327730
     3.4980      0.327650
     3.4985      0.327870
     3.4990      0.328720
     3.4995      0.329570
     3.5000      0.329750
     3.5005      0.329900
     3.5010      0.329890
     3.5015      0.329770
     3.5020      0.329640
     3.5025      0.329510
     3.5030      0.329370
     3.5035      0.329540
     3.5040      0.329760
     3.5045      0.330410
     3.5050      0.331510
     3.5055      0.332550
     3.5060      0.333170
     3.5065      0.333780
     3.5070      0.333370
     3.5075      0.332630
     3.5080      0.332030
     3.5085      0.331680
     3.5090      0.331340
     3.5095      0.331450
     3.5100      0.331560
     3.5105      0.331460
     3.5110      0.331230
     3.5115      0.331230
     3.5120      0.331860
     3.5125      0.332490
     3.5130      0.333010
     3.5135      0.333520
     3.5140      0.333680
     3.5145      0.333510
     3.5150      0.333300
     3.5155      0.332790
     3.5160      0.332290
     3.5165      0.331670
     3.5170      0.331010
     3.5175      0.331220
     3.5180      0.333060
     3.5185      0.334910
     3.5190      0.336890
     3.5195      0.338870
     3.5200      0.339310
     3.5205      0.338570
     3.5210      0.337920
     3.5215      0.337710
     3.5220      0.337500
     3.5225      0.337550
     3.5230      0.337670
     3.5235      0.337690
     3.5240      0.337550
     3.5245      0.337420
     3.5250      0.338290
     3.5255      0.339170
     3.5260      0.339790
     3.5265      0.340240
     3.5270      0.340710
     3.5275      0.341270
     3.5280      0.341840
     3.5285      0.342940
     3.5290      0.344170
     3.5295      0.344640
     3.5300      0.343990
     3.5305      0.343350
     3.5310      0.341460
     3.5315      0.339570
     3.5320      0.338690
     3.5325      0.338510
     3.5330      0.338560
     3.5335      0.339650
     3.5340      0.340740
     3.5345      0.341260
     3.5350      0.341620
     3.5355      0.341820
     3.5360      0.341750
     3.5365      0.341690
     3.5370      0.342380
     3.5375      0.343110
     3.5380      0.343750
     3.5385      0.344330
     3.5390      0.344820
     3.5395      0.344730
     3.5400      0.344650
     3.5405      0.344640
     3.5410      0.344650
     3.5415      0.344580
     3.5420      0.344320
     3.5425      0.344060
     3.5430      0.344250
     3.5435      0.344510
     3.5440      0.345010
     3.5445      0.345790
     3.5450      0.346540
     3.5455      0.346180
     3.5460      0.345820
     3.5465      0.345080
     3.5470      0.344080
     3.5475      0.343240
     3.5480      0.343120
     3.5485      0.343000
     3.5490      0.343310
     3.5495      0.343760
     3.5500      0.343810
     3.5505      0.343030
     3.5510      0.342250
     3.5515      0.341160
     3.5520      0.340040
     3.5525      0.339860
     3.5530      0.340800
     3.5535      0.341760
     3.5540      0.343760
     3.5545      0.345760
     3.5550      0.346740
     3.5555      0.347000
     3.5560      0.347060
     3.5565      0.345960
     3.5570      0.344850
     3.5575      0.343990
     3.5580      0.343220
     3.5585      0.342160
     3.5590      0.340340
     3.5595      0.338510
     3.5600      0.336370
     3.5605      0.334160
     3.5610      0.332650
     3.5615      0.332290
     3.5620      0.331930
     3.5625      0.332950
     3.5630      0.334060
     3.5635      0.335130
     3.5640      0.336130
     3.5645      0.337030
     3.5650      0.334780
     3.5655      0.332520
     3.5660      0.329810
     3.5665      0.326780
     3.5670      0.324190
     3.5675      0.324580
     3.5680      0.324970
     3.5685      0.325130
     3.5690      0.325170
     3.5695      0.324830
     3.5700      0.323140
     3.5705      0.321450
     3.5710      0.320890
     3.5715      0.320700
