# author : Oliver Czoske
# source : Ester Aranzana
# date_created : 2017-11-20
# date_modified : 2025-12-16
# status : Measured at 80 K
# wavelength_unit : um
# changes :
# - 2022-03-17 (KL) Updated to match Rics email
# - 2023-06-06 (RD) Modified profiles after discussion with Schott
# - 2025-12-16 (OC) Replaced with measured values
#
 wavelength  transmission
     0.4990      0.018600
     0.4995      0.018600
     0.5000      0.018880
     0.5005      0.017000
     0.5010      0.019120
     0.5015      0.019220
     0.5020      0.028540
     0.5025      0.035330
     0.5030      0.049540
     0.5035      0.055450
     0.5040      0.041390
     0.5045      0.026140
     0.5050      0.015160
     0.5055      0.015170
     0.5060      0.015830
     0.5065      0.025010
     0.5070      0.035890
     0.5075      0.036690
     0.5080      0.028070
     0.5085      0.008340
     0.5090      0.000000
     0.5095      0.000000
     0.5100      0.000000
     0.5105      0.000190
     0.5110      0.008110
     0.5115      0.017300
     0.5120      0.020140
     0.5125      0.006890
     0.5130      0.003260
     0.5135      0.003420
     0.5140      0.010000
     0.5145      0.007120
     0.5150      0.000600
     0.5155      0.004970
     0.5160      0.006260
     0.5165      0.007750
     0.5170      0.005860
     0.5175      0.001020
     0.5180      0.004990
     0.5185      0.004430
     0.5190      0.006460
     0.5195      0.005290
     0.5200      0.014040
     0.5205      0.012040
     0.5210      0.010360
     0.5215      0.008850
     0.5220      0.008850
     0.5225      0.008980
     0.5230      0.011750
     0.5235      0.009600
     0.5240      0.014010
     0.5245      0.009440
     0.5250      0.009110
     0.5255      0.006860
     0.5260      0.006850
     0.5265      0.007820
     0.5270      0.008340
     0.5275      0.008660
     0.5280      0.007590
     0.5285      0.009430
     0.5290      0.003610
     0.5295      0.003020
     0.5300      0.002400
     0.5305      0.000830
     0.5310      0.003100
     0.5315      0.006590
     0.5320      0.004200
     0.5325      0.000350
     0.5330      0.000070
     0.5335      0.000790
     0.5340      0.000850
     0.5345      0.000000
     0.5350      0.003460
     0.5355      0.002660
     0.5360      0.003550
     0.5365      0.002930
     0.5370      0.004280
     0.5375      0.006380
     0.5380      0.003980
     0.5385      0.006800
     0.5390      0.005510
     0.5395      0.005630
     0.5400      0.006940
     0.5405      0.007020
     0.5410      0.006960
     0.5415      0.006410
     0.5420      0.006410
     0.5425      0.005580
     0.5430      0.007100
     0.5435      0.006100
     0.5440      0.008270
     0.5445      0.010220
     0.5450      0.007850
     0.5455      0.007770
     0.5460      0.008920
     0.5465      0.008030
     0.5470      0.007940
     0.5475      0.008670
     0.5480      0.008460
     0.5485      0.007360
     0.5490      0.008490
     0.5495      0.005140
     0.5500      0.006510
     0.5505      0.005390
     0.5510      0.006440
     0.5515      0.004630
     0.5520      0.005810
     0.5525      0.005900
     0.5530      0.003350
     0.5535      0.003780
     0.5540      0.003080
     0.5545      0.002200
     0.5550      0.005200
     0.5555      0.003770
     0.5560      0.000000
     0.5565      0.000000
     0.5570      0.000080
     0.5575      0.001840
     0.5580      0.001030
     0.5585      0.001970
     0.5590      0.002520
     0.5595      0.003500
     0.5600      0.004750
     0.5605      0.005380
     0.5610      0.005700
     0.5615      0.005100
     0.5620      0.005480
     0.5625      0.005750
     0.5630      0.006670
     0.5635      0.008490
     0.5640      0.010150
     0.5645      0.010680
     0.5650      0.011240
     0.5655      0.009030
     0.5660      0.007760
     0.5665      0.007730
     0.5670      0.007390
     0.5675      0.008990
     0.5680      0.009520
     0.5685      0.009750
     0.5690      0.008600
     0.5695      0.007890
     0.5700      0.009420
     0.5705      0.014710
     0.5710      0.022180
     0.5715      0.027050
     0.5720      0.027880
     0.5725      0.021890
     0.5730      0.009300
     0.5735      0.000000
     0.5740      0.000000
     0.5745      0.000000
     0.5750      0.000000
     0.5755      0.011630
     0.5760      0.028570
     0.5765      0.037870
     0.5770      0.039610
     0.5775      0.033080
     0.5780      0.024060
     0.5785      0.015180
     0.5790      0.010720
     0.5795      0.011110
     0.5800      0.014010
     0.5805      0.017910
     0.5810      0.019420
     0.5815      0.017920
     0.5820      0.014620
     0.5825      0.011420
     0.5830      0.009650
     0.5835      0.010090
     0.5840      0.010920
     0.5845      0.011420
     0.5850      0.012700
     0.5855      0.012920
     0.5860      0.012420
     0.5865      0.011250
     0.5870      0.010060
     0.5875      0.010630
     0.5880      0.009630
     0.5885      0.009940
     0.5890      0.009520
     0.5895      0.009080
     0.5900      0.009190
     0.5905      0.008470
     0.5910      0.007720
     0.5915      0.007560
     0.5920      0.007360
     0.5925      0.007060
     0.5930      0.007220
     0.5935      0.007550
     0.5940      0.006420
     0.5945      0.005980
     0.5950      0.005940
     0.5955      0.005360
     0.5960      0.005400
     0.5965      0.005470
     0.5970      0.005570
     0.5975      0.004650
     0.5980      0.004400
     0.5985      0.004350
     0.5990      0.003950
     0.5995      0.003700
     0.6000      0.002990
     0.6005      0.002680
     0.6010      0.002830
     0.6015      0.002630
     0.6020      0.002860
     0.6025      0.002170
     0.6030      0.002050
     0.6035      0.001610
     0.6040      0.001690
     0.6045      0.001580
     0.6050      0.000830
     0.6055      0.000750
     0.6060      0.000790
     0.6065      0.000650
     0.6070      0.000550
     0.6075      0.000320
     0.6080      0.000180
     0.6085      0.000160
     0.6090      0.000180
     0.6095      0.000410
     0.6100      0.000360
     0.6105      0.000000
     0.6110      0.000990
     0.6115      0.000800
     0.6120      0.000580
     0.6125      0.000580
     0.6130      0.000810
     0.6135      0.001370
     0.6140      0.001360
     0.6145      0.001020
     0.6150      0.001090
     0.6155      0.000910
     0.6160      0.001350
     0.6165      0.000970
     0.6170      0.001270
     0.6175      0.001280
     0.6180      0.001180
     0.6185      0.001450
     0.6190      0.001360
     0.6195      0.001390
     0.6200      0.001570
     0.6205      0.001460
     0.6210      0.001440
     0.6215      0.001360
     0.6220      0.001560
     0.6225      0.001420
     0.6230      0.001510
     0.6235      0.001480
     0.6240      0.001210
     0.6245      0.001370
     0.6250      0.000930
     0.6255      0.001160
     0.6260      0.001400
     0.6265      0.000730
     0.6270      0.001090
     0.6275      0.001010
     0.6280      0.000680
     0.6285      0.000930
     0.6290      0.000720
     0.6295      0.000380
     0.6300      0.000000
     0.6305      0.000000
     0.6310      0.000000
     0.6315      0.000180
     0.6320      0.000500
     0.6325      0.001970
     0.6330      0.019290
     0.6335      0.000570
     0.6340      0.000260
     0.6345      0.000000
     0.6350      0.000000
     0.6355      0.000000
     0.6360      0.000000
     0.6365      0.000000
     0.6370      0.000120
     0.6375      0.000410
     0.6380      0.000150
     0.6385      0.000240
     0.6390      0.000440
     0.6395      0.000470
     0.6400      0.000390
     0.6405      0.000190
     0.6410      0.000320
     0.6415      0.000390
     0.6420      0.000470
     0.6425      0.000450
     0.6430      0.000160
     0.6435      0.000390
     0.6440      0.000370
     0.6445      0.000270
     0.6450      0.000580
     0.6455      0.000540
     0.6460      0.000590
     0.6465      0.000660
     0.6470      0.000420
     0.6475      0.000510
     0.6480      0.000660
     0.6485      0.000560
     0.6490      0.000540
     0.6495      0.000540
     0.6500      0.000710
     0.6505      0.000560
     0.6510      0.000580
     0.6515      0.000710
     0.6520      0.000250
     0.6525      0.000630
     0.6530      0.000530
     0.6535      0.000760
     0.6540      0.000510
     0.6545      0.000640
     0.6550      0.000600
     0.6555      0.000560
     0.6560      0.000540
     0.6565      0.000690
     0.6570      0.000450
     0.6575      0.000510
     0.6580      0.000330
     0.6585      0.000340
     0.6590      0.000760
     0.6595      0.000400
     0.6600      0.000610
     0.6605      0.000470
     0.6610      0.000500
     0.6615      0.000630
     0.6620      0.000520
     0.6625      0.000450
     0.6630      0.000290
     0.6635      0.000370
     0.6640      0.000340
     0.6645      0.000260
     0.6650      0.000370
     0.6655      0.000290
     0.6660      0.000190
     0.6665      0.000380
     0.6670      0.000660
     0.6675      0.000790
     0.6680      0.000890
     0.6685      0.000800
     0.6690      0.000880
     0.6695      0.000650
     0.6700      0.000700
     0.6705      0.000700
     0.6710      0.000510
     0.6715      0.000810
     0.6720      0.000630
     0.6725      0.000590
     0.6730      0.000580
     0.6735      0.000610
     0.6740      0.000750
     0.6745      0.000550
     0.6750      0.000520
     0.6755      0.000640
     0.6760      0.000440
     0.6765      0.000730
     0.6770      0.000730
     0.6775      0.000870
     0.6780      0.000890
     0.6785      0.000890
     0.6790      0.000700
     0.6795      0.000500
     0.6800      0.000250
     0.6805      0.000200
     0.6810      0.000090
     0.6815      0.000190
     0.6820      0.000010
     0.6825      0.000220
     0.6830      0.000130
     0.6835      0.000270
     0.6840      0.000190
     0.6845      0.000300
     0.6850      0.000140
     0.6855      0.000230
     0.6860      0.000330
     0.6865      0.000300
     0.6870      0.000270
     0.6875      0.000280
     0.6880      0.000160
     0.6885      0.000220
     0.6890      0.000210
     0.6895      0.000160
     0.6900      0.000200
     0.6905      0.000340
     0.6910      0.000310
     0.6915      0.000250
     0.6920      0.000390
     0.6925      0.000310
     0.6930      0.000190
     0.6935      0.000270
     0.6940      0.000190
     0.6945      0.000290
     0.6950      0.000270
     0.6955      0.000210
     0.6960      0.000180
     0.6965      0.000250
     0.6970      0.000210
     0.6975      0.000290
     0.6980      0.000190
     0.6985      0.000060
     0.6990      0.000080
     0.6995      0.000010
     0.7000      0.000120
     0.7005      0.000140
     0.7010      0.000220
     0.7015      0.000170
     0.7020      0.000080
     0.7025      0.000060
     0.7030      0.000000
     0.7035      0.000140
     0.7040      0.000110
     0.7045      0.000060
     0.7050      0.000000
     0.7055      0.000030
     0.7060      0.000000
     0.7065      0.000000
     0.7070      0.000000
     0.7075      0.000020
     0.7080      0.000000
     0.7085      0.000080
     0.7090      0.000000
     0.7095      0.000020
     0.7100      0.000130
     0.7105      0.000010
     0.7110      0.000000
     0.7115      0.000010
     0.7120      0.000130
     0.7125      0.000090
     0.7130      0.000150
     0.7135      0.000160
     0.7140      0.000090
     0.7145      0.000100
     0.7150      0.000130
     0.7155      0.000120
     0.7160      0.000150
     0.7165      0.000140
     0.7170      0.000100
     0.7175      0.000120
     0.7180      0.000080
     0.7185      0.000110
     0.7190      0.000100
     0.7195      0.000170
     0.7200      0.000140
     0.7205      0.000160
     0.7210      0.000160
     0.7215      0.000100
     0.7220      0.000160
     0.7225      0.000060
     0.7230      0.000110
     0.7235      0.000120
     0.7240      0.000100
     0.7245      0.000200
     0.7250      0.000150
     0.7255      0.000200
     0.7260      0.000170
     0.7265      0.000200
     0.7270      0.000130
     0.7275      0.000190
     0.7280      0.000180
     0.7285      0.000190
     0.7290      0.000160
     0.7295      0.000180
     0.7300      0.000060
     0.7305      0.000100
     0.7310      0.000210
     0.7315      0.000240
     0.7320      0.000050
     0.7325      0.000200
     0.7330      0.000200
     0.7335      0.000150
     0.7340      0.000150
     0.7345      0.000180
     0.7350      0.000140
     0.7355      0.000240
     0.7360      0.000590
     0.7365      0.000640
     0.7370      0.000380
     0.7375      0.000260
     0.7380      0.000190
     0.7385      0.000130
     0.7390      0.000160
     0.7395      0.000080
     0.7400      0.000070
     0.7405      0.000040
     0.7410      0.000080
     0.7415      0.000160
     0.7420      0.000050
     0.7425      0.000160
     0.7430      0.000100
     0.7435      0.000140
     0.7440      0.000070
     0.7445      0.000100
     0.7450      0.000060
     0.7455      0.000210
     0.7460      0.000090
     0.7465      0.000050
     0.7470      0.000150
     0.7475      0.000010
     0.7480      0.000110
     0.7485      0.000030
     0.7490      0.000050
     0.7495      0.000040
     0.7500      0.000000
     0.7505      0.000090
     0.7510      0.000000
     0.7515      0.000000
     0.7520      0.000040
     0.7525      0.000020
     0.7530      0.000000
     0.7535      0.000020
     0.7540      0.000000
     0.7545      0.000040
     0.7550      0.000070
     0.7555      0.000080
     0.7560      0.000140
     0.7565      0.000210
     0.7570      0.000360
     0.7575      0.000390
     0.7580      0.000470
     0.7585      0.000620
     0.7590      0.000620
     0.7595      0.000450
     0.7600      0.000340
     0.7605      0.000340
     0.7610      0.000250
     0.7615      0.000140
     0.7620      0.000220
     0.7625      0.000090
     0.7630      0.000100
     0.7635      0.000060
     0.7640      0.000060
     0.7645      0.000100
     0.7650      0.000040
     0.7655      0.000020
     0.7660      0.000020
     0.7665      0.000110
     0.7670      0.000090
     0.7675      0.000090
     0.7680      0.000110
     0.7685      0.000090
     0.7690      0.000120
     0.7695      0.000130
     0.7700      0.000160
     0.7705      0.000140
     0.7710      0.000090
     0.7715      0.000120
     0.7720      0.000100
     0.7725      0.000170
     0.7730      0.000160
     0.7735      0.000160
     0.7740      0.000160
     0.7745      0.000120
     0.7750      0.000120
     0.7755      0.000060
     0.7760      0.000100
     0.7765      0.000070
     0.7770      0.000080
     0.7775      0.000120
     0.7780      0.000110
     0.7785      0.000080
     0.7790      0.000080
     0.7795      0.000080
     0.7800      0.000100
     0.7805      0.000070
     0.7810      0.000000
     0.7815      0.000000
     0.7820      0.000080
     0.7825      0.000110
     0.7830      0.000000
     0.7835      0.000050
     0.7840      0.000090
     0.7845      0.000090
     0.7850      0.000040
     0.7855      0.000080
     0.7860      0.000090
     0.7865      0.000070
     0.7870      0.000100
     0.7875      0.000120
     0.7880      0.000010
     0.7885      0.000020
     0.7890      0.000080
     0.7895      0.000080
     0.7900      0.000040
     0.7905      0.000110
     0.7910      0.000030
     0.7915      0.000050
     0.7920      0.000060
     0.7925      0.000000
     0.7930      0.000020
     0.7935      0.000000
     0.7940      0.000000
     0.7945      0.000000
     0.7950      0.000000
     0.7955      0.000000
     0.7960      0.000010
     0.7965      0.000000
     0.7970      0.000000
     0.7975      0.000040
     0.7980      0.000040
     0.7985      0.000110
     0.7990      0.000300
     0.7995      0.000450
     0.8000      0.000610
     0.8005      0.000690
     0.8010      0.000580
     0.8015      0.000440
     0.8020      0.000400
     0.8025      0.000380
     0.8030      0.000480
     0.8035      0.000200
     0.8040      0.000130
     0.8045      0.000010
     0.8050      0.000050
     0.8055      0.000030
     0.8060      0.000070
     0.8065      0.000020
     0.8070      0.000030
     0.8075      0.000000
     0.8080      0.000040
     0.8085      0.000040
     0.8090      0.000100
     0.8095      0.000060
     0.8100      0.000090
     0.8105      0.000100
     0.8110      0.000080
     0.8115      0.000080
     0.8120      0.000110
     0.8125      0.000080
     0.8130      0.000060
     0.8135      0.000100
     0.8140      0.000090
     0.8145      0.000120
     0.8150      0.000100
     0.8155      0.000090
     0.8160      0.000120
     0.8165      0.000090
     0.8170      0.000120
     0.8175      0.000150
     0.8180      0.000150
     0.8185      0.000100
     0.8190      0.000110
     0.8195      0.000120
     0.8200      0.000100
     0.8205      0.000140
     0.8210      0.000110
     0.8215      0.000090
     0.8220      0.000090
     0.8225      0.000110
     0.8230      0.000120
     0.8235      0.000090
     0.8240      0.000070
     0.8245      0.000090
     0.8250      0.000090
     0.8255      0.000150
     0.8260      0.000060
     0.8265      0.000150
     0.8270      0.000090
     0.8275      0.000120
     0.8280      0.000090
     0.8285      0.000080
     0.8290      0.000090
     0.8295      0.000080
     0.8300      0.000090
     0.8305      0.000070
     0.8310      0.000060
     0.8315      0.000080
     0.8320      0.000030
     0.8325      0.000080
     0.8330      0.000090
     0.8335      0.000080
     0.8340      0.000080
     0.8345      0.000060
     0.8350      0.000080
     0.8355      0.000050
     0.8360      0.000100
     0.8365      0.000110
     0.8370      0.000050
     0.8375      0.000060
     0.8380      0.000070
     0.8385      0.000120
     0.8390      0.000140
     0.8395      0.000110
     0.8400      0.000140
     0.8405      0.000120
     0.8410      0.000060
     0.8415      0.000040
     0.8420      0.000040
     0.8425      0.000060
     0.8430      0.000010
     0.8435      0.000030
     0.8440      0.000040
     0.8445      0.000070
     0.8450      0.000060
     0.8455      0.000060
     0.8460      0.000060
     0.8465      0.000020
     0.8470      0.000050
     0.8475      0.000010
     0.8480      0.000030
     0.8485      0.000010
     0.8490      0.000040
     0.8495      0.000010
     0.8500      0.000030
     0.8505      0.000020
     0.8510      0.000000
     0.8515      0.000000
     0.8520      0.000000
     0.8525      0.000030
     0.8530      0.000010
     0.8535      0.000040
     0.8540      0.000010
     0.8545      0.000050
     0.8550      0.000000
     0.8555      0.000000
     0.8560      0.000000
     0.8565      0.000030
     0.8570      0.000000
     0.8575      0.000010
     0.8580      0.000030
     0.8585      0.000020
     0.8590      0.000010
     0.8595      0.000020
     0.8600      0.000050
     0.8605      0.000050
     0.8610      0.000040
     0.8615      0.000020
     0.8620      0.000040
     0.8625      0.000010
     0.8630      0.000040
     0.8635      0.000030
     0.8640      0.000040
     0.8645      0.000030
     0.8650      0.000050
     0.8655      0.000010
     0.8660      0.000050
     0.8665      0.000030
     0.8670      0.000020
     0.8675      0.000030
     0.8680      0.000040
     0.8685      0.000070
     0.8690      0.000060
     0.8695      0.000050
     0.8700      0.000050
     0.8705      0.000040
     0.8710      0.000030
     0.8715      0.000030
     0.8720      0.000080
     0.8725      0.000080
     0.8730      0.000050
     0.8735      0.000060
     0.8740      0.000060
     0.8745      0.000060
     0.8750      0.000060
     0.8755      0.000080
     0.8760      0.000030
     0.8765      0.000070
     0.8770      0.000050
     0.8775      0.000070
     0.8780      0.000080
     0.8785      0.000050
     0.8790      0.000040
     0.8795      0.000040
     0.8800      0.000040
     0.8805      0.000070
     0.8810      0.000050
     0.8815      0.000040
     0.8820      0.000040
     0.8825      0.000050
     0.8830      0.000060
     0.8835      0.000060
     0.8840      0.000080
     0.8845      0.000060
     0.8850      0.000050
     0.8855      0.000060
     0.8860      0.000080
     0.8865      0.000080
     0.8870      0.000070
     0.8875      0.000050
     0.8880      0.000060
     0.8885      0.000060
     0.8890      0.000050
     0.8895      0.000070
     0.8900      0.000030
     0.8905      0.000040
     0.8910      0.000090
     0.8915      0.000080
     0.8920      0.000060
     0.8925      0.000050
     0.8930      0.000070
     0.8935      0.000060
     0.8940      0.000070
     0.8945      0.000040
     0.8950      0.000060
     0.8955      0.000080
     0.8960      0.000050
     0.8965      0.000070
     0.8970      0.000040
     0.8975      0.000050
     0.8980      0.000070
     0.8985      0.000070
     0.8990      0.000050
     0.8995      0.000050
     0.9000      0.000050
     0.9005      0.000030
     0.9010      0.000050
     0.9015      0.000020
     0.9020      0.000010
     0.9025      0.000040
     0.9030      0.000060
     0.9035      0.000030
     0.9040      0.000010
     0.9045      0.000020
     0.9050      0.000000
     0.9055      0.000020
     0.9060      0.000030
     0.9065      0.000010
     0.9070      0.000020
     0.9075      0.000020
     0.9080      0.000000
     0.9085      0.000000
     0.9090      0.000010
     0.9095      0.000000
     0.9100      0.000010
     0.9105      0.000000
     0.9110      0.000010
     0.9115      0.000000
     0.9120      0.000010
     0.9125      0.000010
     0.9130      0.000010
     0.9135      0.000010
     0.9140      0.000020
     0.9145      0.000010
     0.9150      0.000010
     0.9155      0.000000
     0.9160      0.000010
     0.9165      0.000010
     0.9170      0.000020
     0.9175      0.000000
     0.9180      0.000000
     0.9185      0.000030
     0.9190      0.000040
     0.9195      0.000010
     0.9200      0.000010
     0.9205      0.000010
     0.9210      0.000050
     0.9215      0.000020
     0.9220      0.000020
     0.9225      0.000030
     0.9230      0.000030
     0.9235      0.000020
     0.9240      0.000020
     0.9245      0.000050
     0.9250      0.000030
     0.9255      0.000030
     0.9260      0.000030
     0.9265      0.000040
     0.9270      0.000050
     0.9275      0.000040
     0.9280      0.000020
     0.9285      0.000030
     0.9290      0.000050
     0.9295      0.000040
     0.9300      0.000040
     0.9305      0.000040
     0.9310      0.000030
     0.9315      0.000040
     0.9320      0.000030
     0.9325      0.000010
     0.9330      0.000010
     0.9335      0.000020
     0.9340      0.000020
     0.9345      0.000010
     0.9350      0.000000
     0.9355      0.000000
     0.9360      0.000010
     0.9365      0.000000
     0.9370      0.000030
     0.9375      0.000000
     0.9380      0.000020
     0.9385      0.000010
     0.9390      0.000030
     0.9395      0.000030
     0.9400      0.000030
     0.9405      0.000020
     0.9410      0.000030
     0.9415      0.000020
     0.9420      0.000020
     0.9425      0.000030
     0.9430      0.000040
     0.9435      0.000030
     0.9440      0.000030
     0.9445      0.000030
     0.9450      0.000040
     0.9455      0.000040
     0.9460      0.000030
     0.9465      0.000030
     0.9470      0.000020
     0.9475      0.000030
     0.9480      0.000030
     0.9485      0.000030
     0.9490      0.000040
     0.9495      0.000050
     0.9500      0.000040
     0.9505      0.000050
     0.9510      0.000030
     0.9515      0.000030
     0.9520      0.000060
     0.9525      0.000040
     0.9530      0.000040
     0.9535      0.000040
     0.9540      0.000050
     0.9545      0.000040
     0.9550      0.000040
     0.9555      0.000040
     0.9560      0.000040
     0.9565      0.000040
     0.9570      0.000030
     0.9575      0.000040
     0.9580      0.000060
     0.9585      0.000050
     0.9590      0.000030
     0.9595      0.000040
     0.9600      0.000050
     0.9605      0.000020
     0.9610      0.000020
     0.9615      0.000040
     0.9620      0.000040
     0.9625      0.000030
     0.9630      0.000020
     0.9635      0.000040
     0.9640      0.000040
     0.9645      0.000030
     0.9650      0.000020
     0.9655      0.000040
     0.9660      0.000030
     0.9665      0.000030
     0.9670      0.000040
     0.9675      0.000020
     0.9680      0.000030
     0.9685      0.000030
     0.9690      0.000020
     0.9695      0.000040
     0.9700      0.000030
     0.9705      0.000020
     0.9710      0.000020
     0.9715      0.000030
     0.9720      0.000040
     0.9725      0.000040
     0.9730      0.000020
     0.9735      0.000010
     0.9740      0.000020
     0.9745      0.000020
     0.9750      0.000010
     0.9755      0.000010
     0.9760      0.000020
     0.9765      0.000020
     0.9770      0.000000
     0.9775      0.000000
     0.9780      0.000000
     0.9785      0.000000
     0.9790      0.000010
     0.9795      0.000020
     0.9800      0.000010
     0.9805      0.000000
     0.9810      0.000000
     0.9815      0.000000
     0.9820      0.000000
     0.9825      0.000000
     0.9830      0.000000
     0.9835      0.000000
     0.9840      0.000000
     0.9845      0.000000
     0.9850      0.000000
     0.9855      0.000000
     0.9860      0.000000
     0.9865      0.000000
     0.9870      0.000000
     0.9875      0.000000
     0.9880      0.000000
     0.9885      0.000000
     0.9890      0.000000
     0.9895      0.000000
     0.9900      0.000000
     0.9905      0.000000
     0.9910      0.000000
     0.9915      0.000000
     0.9920      0.000000
     0.9925      0.000000
     0.9930      0.000000
     0.9935      0.000000
     0.9940      0.000000
     0.9945      0.000000
     0.9950      0.000000
     0.9955      0.000000
     0.9960      0.000010
     0.9965      0.000000
     0.9970      0.000020
     0.9975      0.000000
     0.9980      0.000010
     0.9985      0.000050
     0.9990      0.000060
     0.9995      0.000040
     1.0000      0.000030
     1.0005      0.000040
     1.0010      0.000030
     1.0015      0.000030
     1.0020      0.000040
     1.0025      0.000060
     1.0030      0.000050
     1.0035      0.000050
     1.0040      0.000040
     1.0045      0.000050
     1.0050      0.000050
     1.0055      0.000040
     1.0060      0.000040
     1.0065      0.000050
     1.0070      0.000050
     1.0075      0.000060
     1.0080      0.000060
     1.0085      0.000070
     1.0090      0.000050
     1.0095      0.000060
     1.0100      0.000050
     1.0105      0.000060
     1.0110      0.000060
     1.0115      0.000060
     1.0120      0.000060
     1.0125      0.000070
     1.0130      0.000060
     1.0135      0.000070
     1.0140      0.000060
     1.0145      0.000060
     1.0150      0.000050
     1.0155      0.000060
     1.0160      0.000060
     1.0165      0.000070
     1.0170      0.000060
     1.0175      0.000070
     1.0180      0.000070
     1.0185      0.000060
     1.0190      0.000070
     1.0195      0.000070
     1.0200      0.000090
     1.0205      0.000080
     1.0210      0.000060
     1.0215      0.000070
     1.0220      0.000070
     1.0225      0.000090
     1.0230      0.000070
     1.0235      0.000070
     1.0240      0.000080
     1.0245      0.000070
     1.0250      0.000070
     1.0255      0.000070
     1.0260      0.000060
     1.0265      0.000080
     1.0270      0.000070
     1.0275      0.000080
     1.0280      0.000080
     1.0285      0.000090
     1.0290      0.000080
     1.0295      0.000070
     1.0300      0.000080
     1.0305      0.000090
     1.0310      0.000090
     1.0315      0.000080
     1.0320      0.000080
     1.0325      0.000070
     1.0330      0.000090
     1.0335      0.000070
     1.0340      0.000060
     1.0345      0.000080
     1.0350      0.000070
     1.0355      0.000070
     1.0360      0.000070
     1.0365      0.000050
     1.0370      0.000060
     1.0375      0.000050
     1.0380      0.000060
     1.0385      0.000040
     1.0390      0.000060
     1.0395      0.000060
     1.0400      0.000030
     1.0405      0.000040
     1.0410      0.000010
     1.0415      0.000000
     1.0420      0.000000
     1.0425      0.000000
     1.0430      0.000000
     1.0435      0.000000
     1.0440      0.000000
     1.0445      0.000000
     1.0450      0.000000
     1.0455      0.000000
     1.0460      0.000000
     1.0465      0.000000
     1.0470      0.000000
     1.0475      0.000000
     1.0480      0.000000
     1.0485      0.000000
     1.0490      0.000000
     1.0495      0.000000
     1.0500      0.000000
     1.0505      0.000000
     1.0510      0.000000
     1.0515      0.000000
     1.0520      0.000000
     1.0525      0.000000
     1.0530      0.000000
     1.0535      0.000000
     1.0540      0.000000
     1.0545      0.000000
     1.0550      0.000000
     1.0555      0.000000
     1.0560      0.000000
     1.0565      0.000000
     1.0570      0.000000
     1.0575      0.000000
     1.0580      0.000000
     1.0585      0.000000
     1.0590      0.000000
     1.0595      0.000000
     1.0600      0.000000
     1.0605      0.000000
     1.0610      0.000000
     1.0615      0.000000
     1.0620      0.000000
     1.0625      0.000000
     1.0630      0.000000
     1.0635      0.000020
     1.0640      0.000000
     1.0645      0.000010
     1.0650      0.000000
     1.0655      0.000000
     1.0660      0.000000
     1.0665      0.000000
     1.0670      0.000000
     1.0675      0.000030
     1.0680      0.000020
     1.0685      0.000030
     1.0690      0.000030
     1.0695      0.000040
     1.0700      0.000040
     1.0705      0.000020
     1.0710      0.000080
     1.0715      0.000040
     1.0720      0.000040
     1.0725      0.000060
     1.0730      0.000050
     1.0735      0.000090
     1.0740      0.000060
     1.0745      0.000100
     1.0750      0.000090
     1.0755      0.000080
     1.0760      0.000070
     1.0765      0.000090
     1.0770      0.000090
     1.0775      0.000140
     1.0780      0.000120
     1.0785      0.000150
     1.0790      0.000130
     1.0795      0.000150
     1.0800      0.000140
     1.0805      0.000140
     1.0810      0.000160
     1.0815      0.000200
     1.0820      0.000180
     1.0825      0.000190
     1.0830      0.000180
     1.0835      0.000230
     1.0840      0.000240
     1.0845      0.000230
     1.0850      0.000240
     1.0855      0.000270
     1.0860      0.000250
     1.0865      0.000290
     1.0870      0.000290
     1.0875      0.000280
     1.0880      0.000290
     1.0885      0.000370
     1.0890      0.000350
     1.0895      0.000370
     1.0900      0.000410
     1.0905      0.000390
     1.0910      0.000390
     1.0915      0.000430
     1.0920      0.000400
     1.0925      0.000380
     1.0930      0.000460
     1.0935      0.000420
     1.0940      0.000460
     1.0945      0.000440
     1.0950      0.000480
     1.0955      0.000460
     1.0960      0.000470
     1.0965      0.000480
     1.0970      0.000470
     1.0975      0.000530
     1.0980      0.000530
     1.0985      0.000550
     1.0990      0.000560
     1.0995      0.000570
     1.1000      0.000560
     1.1005      0.000610
     1.1010      0.000650
     1.1015      0.000610
     1.1020      0.000670
     1.1025      0.000710
     1.1030      0.000650
     1.1035      0.000670
     1.1040      0.000720
     1.1045      0.000700
     1.1050      0.000800
     1.1055      0.000770
     1.1060      0.000750
     1.1065      0.000840
     1.1070      0.000890
     1.1075      0.000770
     1.1080      0.000780
     1.1085      0.000820
     1.1090      0.000800
     1.1095      0.000930
     1.1100      0.000880
     1.1105      0.000860
     1.1110      0.000890
     1.1115      0.000850
     1.1120      0.000230
     1.1125      0.000070
     1.1130      0.000520
     1.1135      0.000330
     1.1140      0.000000
     1.1145      0.000630
     1.1150      0.000140
     1.1155      0.000000
     1.1160      0.000980
     1.1165      0.002370
     1.1170      0.002110
     1.1175      0.000310
     1.1180      0.001790
     1.1185      0.000000
     1.1190      0.000370
     1.1195      0.001620
     1.1200      0.000180
     1.1205      0.000720
     1.1210      0.001160
     1.1215      0.000000
     1.1220      0.000380
     1.1225      0.000510
     1.1230      0.000060
     1.1235      0.000380
     1.1240      0.001070
     1.1245      0.000010
     1.1250      0.000740
     1.1255      0.000250
     1.1260      0.001650
     1.1265      0.000000
     1.1270      0.000000
     1.1275      0.000330
     1.1280      0.000500
     1.1285      0.000000
     1.1290      0.000860
     1.1295      0.000720
     1.1300      0.000000
     1.1305      0.003110
     1.1310      0.001410
     1.1315      0.000690
     1.1320      0.000770
     1.1325      0.001070
     1.1330      0.000230
     1.1335      0.000000
     1.1340      0.000000
     1.1345      0.001510
     1.1350      0.000610
     1.1355      0.001230
     1.1360      0.001850
     1.1365      0.002160
     1.1370      0.001670
     1.1375      0.002250
     1.1380      0.000000
     1.1385      0.000000
     1.1390      0.000160
     1.1395      0.000240
     1.1400      0.000000
     1.1405      0.000000
     1.1410      0.000680
     1.1415      0.001500
     1.1420      0.000140
     1.1425      0.001650
     1.1430      0.002820
     1.1435      0.002850
     1.1440      0.000000
     1.1445      0.001820
     1.1450      0.000000
     1.1455      0.000000
     1.1460      0.000000
     1.1465      0.000000
     1.1470      0.001230
     1.1475      0.000060
     1.1480      0.001430
     1.1485      0.000760
     1.1490      0.004160
     1.1495      0.001480
     1.1500      0.000320
     1.1505      0.000000
     1.1510      0.000000
     1.1515      0.000670
     1.1520      0.001420
     1.1525      0.003900
     1.1530      0.001180
     1.1535      0.000000
     1.1540      0.000000
     1.1545      0.001060
     1.1550      0.000160
     1.1555      0.000220
     1.1560      0.002300
     1.1565      0.002100
     1.1570      0.000040
     1.1575      0.000800
     1.1580      0.000000
     1.1585      0.000000
     1.1590      0.000000
     1.1595      0.000110
     1.1600      0.000100
     1.1605      0.000000
     1.1610      0.000000
     1.1615      0.000000
     1.1620      0.001350
     1.1625      0.001840
     1.1630      0.002910
     1.1635      0.000260
     1.1640      0.001030
     1.1645      0.000690
     1.1650      0.000690
     1.1655      0.001500
     1.1660      0.000090
     1.1665      0.000970
     1.1670      0.000140
     1.1675      0.000000
     1.1680      0.000000
     1.1685      0.000120
     1.1690      0.001410
     1.1695      0.001390
     1.1700      0.000720
     1.1705      0.000670
     1.1710      0.002620
     1.1715      0.000870
     1.1720      0.000740
     1.1725      0.000060
     1.1730      0.000000
     1.1735      0.000950
     1.1740      0.000670
     1.1745      0.001890
     1.1750      0.001360
     1.1755      0.000990
     1.1760      0.001090
     1.1765      0.000900
     1.1770      0.002260
     1.1775      0.000920
     1.1780      0.000000
     1.1785      0.000000
     1.1790      0.000320
     1.1795      0.000270
     1.1800      0.000850
     1.1805      0.001040
     1.1810      0.001800
     1.1815      0.000330
     1.1820      0.000170
     1.1825      0.000480
     1.1830      0.000000
     1.1835      0.000000
     1.1840      0.000810
     1.1845      0.000000
     1.1850      0.000510
     1.1855      0.001030
     1.1860      0.000000
     1.1865      0.001570
     1.1870      0.000240
     1.1875      0.000100
     1.1880      0.000530
     1.1885      0.000490
     1.1890      0.000040
     1.1895      0.000000
     1.1900      0.000000
     1.1905      0.000840
     1.1910      0.000620
     1.1915      0.000220
     1.1920      0.000010
     1.1925      0.001540
     1.1930      0.001030
     1.1935      0.000620
     1.1940      0.000530
     1.1945      0.001790
     1.1950      0.001520
     1.1955      0.002020
     1.1960      0.000140
     1.1965      0.001030
     1.1970      0.001030
     1.1975      0.000070
     1.1980      0.001660
     1.1985      0.000300
     1.1990      0.000000
     1.1995      0.000000
     1.2000      0.000560
     1.2005      0.000000
     1.2010      0.000320
     1.2015      0.001070
     1.2020      0.000310
     1.2025      0.000920
     1.2030      0.000660
     1.2035      0.000550
     1.2040      0.001190
     1.2045      0.002230
     1.2050      0.000000
     1.2055      0.001880
     1.2060      0.000080
     1.2065      0.000160
     1.2070      0.000470
     1.2075      0.000000
     1.2080      0.000890
     1.2085      0.000420
     1.2090      0.000000
     1.2095      0.000300
     1.2100      0.000000
     1.2105      0.000040
     1.2110      0.000270
     1.2115      0.000720
     1.2120      0.000640
     1.2125      0.000430
     1.2130      0.001110
     1.2135      0.000000
     1.2140      0.000540
     1.2145      0.000000
     1.2150      0.001510
     1.2155      0.000370
     1.2160      0.000040
     1.2165      0.000130
     1.2170      0.000000
     1.2175      0.000940
     1.2180      0.002080
     1.2185      0.000560
     1.2190      0.000350
     1.2195      0.000710
     1.2200      0.000510
     1.2205      0.000380
     1.2210      0.001430
     1.2215      0.000920
     1.2220      0.000000
     1.2225      0.000000
     1.2230      0.000400
     1.2235      0.001080
     1.2240      0.000000
     1.2245      0.000710
     1.2250      0.000810
     1.2255      0.000000
     1.2260      0.000000
     1.2265      0.000730
     1.2270      0.000000
     1.2275      0.000000
     1.2280      0.000660
     1.2285      0.000650
     1.2290      0.000000
     1.2295      0.000070
     1.2300      0.000000
     1.2305      0.000000
     1.2310      0.000210
     1.2315      0.001370
     1.2320      0.000000
     1.2325      0.000840
     1.2330      0.000000
     1.2335      0.000000
     1.2340      0.000010
     1.2345      0.000360
     1.2350      0.000050
     1.2355      0.000310
     1.2360      0.000370
     1.2365      0.000080
     1.2370      0.000000
     1.2375      0.000180
     1.2380      0.000300
     1.2385      0.000060
     1.2390      0.000030
     1.2395      0.000500
     1.2400      0.000410
     1.2405      0.000570
     1.2410      0.000440
     1.2415      0.000070
     1.2420      0.000000
     1.2425      0.001200
     1.2430      0.000010
     1.2435      0.000400
     1.2440      0.001420
     1.2445      0.000000
     1.2450      0.000530
     1.2455      0.000300
     1.2460      0.000650
     1.2465      0.000900
     1.2470      0.000730
     1.2475      0.001470
     1.2480      0.001290
     1.2485      0.000000
     1.2490      0.000000
     1.2495      0.001690
     1.2500      0.000670
     1.2505      0.000000
     1.2510      0.000550
     1.2515      0.000190
     1.2520      0.000000
     1.2525      0.000000
     1.2530      0.000000
     1.2535      0.000000
     1.2540      0.000530
     1.2545      0.000820
     1.2550      0.000000
     1.2555      0.000100
     1.2560      0.000780
     1.2565      0.000400
     1.2570      0.000000
     1.2575      0.000010
     1.2580      0.000850
     1.2585      0.001540
     1.2590      0.000650
     1.2595      0.000000
     1.2600      0.000000
     1.2605      0.000390
     1.2610      0.002690
     1.2615      0.001940
     1.2620      0.002260
     1.2625      0.000880
     1.2630      0.000000
     1.2635      0.000000
     1.2640      0.000000
     1.2645      0.000260
     1.2650      0.000010
     1.2655      0.000000
     1.2660      0.000230
     1.2665      0.000350
     1.2670      0.001310
     1.2675      0.000020
     1.2680      0.000000
     1.2685      0.000000
     1.2690      0.000000
     1.2695      0.000000
     1.2700      0.001430
     1.2705      0.001010
     1.2710      0.000000
     1.2715      0.000000
     1.2720      0.000110
     1.2725      0.000140
     1.2730      0.000000
     1.2735      0.000000
     1.2740      0.000000
     1.2745      0.001050
     1.2750      0.000730
     1.2755      0.001460
     1.2760      0.000400
     1.2765      0.001420
     1.2770      0.000420
     1.2775      0.000470
     1.2780      0.000900
     1.2785      0.001580
     1.2790      0.001860
     1.2795      0.000980
     1.2800      0.000000
     1.2805      0.000000
     1.2810      0.000000
     1.2815      0.000140
     1.2820      0.000000
     1.2825      0.000580
     1.2830      0.000100
     1.2835      0.000000
     1.2840      0.000150
     1.2845      0.000450
     1.2850      0.000030
     1.2855      0.001430
     1.2860      0.000070
     1.2865      0.000870
     1.2870      0.000470
     1.2875      0.000000
     1.2880      0.000000
     1.2885      0.000000
     1.2890      0.000020
     1.2895      0.000000
     1.2900      0.000000
     1.2905      0.000000
     1.2910      0.000120
     1.2915      0.001120
     1.2920      0.000770
     1.2925      0.000910
     1.2930      0.000070
     1.2935      0.000080
     1.2940      0.000000
     1.2945      0.000000
     1.2950      0.000670
     1.2955      0.000380
     1.2960      0.000690
     1.2965      0.000300
     1.2970      0.000780
     1.2975      0.000020
     1.2980      0.000000
     1.2985      0.000660
     1.2990      0.000220
     1.2995      0.000790
     1.3000      0.000700
     1.3005      0.000390
     1.3010      0.001260
     1.3015      0.000540
     1.3020      0.000620
     1.3025      0.000100
     1.3030      0.000490
     1.3035      0.000580
     1.3040      0.000110
     1.3045      0.000000
     1.3050      0.000210
     1.3055      0.001280
     1.3060      0.000180
     1.3065      0.001140
     1.3070      0.000510
     1.3075      0.000000
     1.3080      0.000180
     1.3085      0.000150
     1.3090      0.000520
     1.3095      0.000000
     1.3100      0.000000
     1.3105      0.000400
     1.3110      0.000000
     1.3115      0.000000
     1.3120      0.000520
     1.3125      0.000020
     1.3130      0.000330
     1.3135      0.000000
     1.3140      0.000240
     1.3145      0.000380
     1.3150      0.000040
     1.3155      0.000000
     1.3160      0.000000
     1.3165      0.000000
     1.3170      0.000370
     1.3175      0.000860
     1.3180      0.001150
     1.3185      0.000000
     1.3190      0.000190
     1.3195      0.000000
     1.3200      0.000000
     1.3205      0.001230
     1.3210      0.000200
     1.3215      0.000660
     1.3220      0.000150
     1.3225      0.000800
     1.3230      0.000000
     1.3235      0.000000
     1.3240      0.000000
     1.3245      0.000000
     1.3250      0.000320
     1.3255      0.001480
     1.3260      0.000660
     1.3265      0.000000
     1.3270      0.000860
     1.3275      0.000000
     1.3280      0.000180
     1.3285      0.000000
     1.3290      0.000870
     1.3295      0.000000
     1.3300      0.000800
     1.3305      0.000300
     1.3310      0.000650
     1.3315      0.000080
     1.3320      0.000360
     1.3325      0.000760
     1.3330      0.000060
     1.3335      0.001440
     1.3340      0.000580
     1.3345      0.000630
     1.3350      0.000030
     1.3355      0.000110
     1.3360      0.000590
     1.3365      0.000040
     1.3370      0.000040
     1.3375      0.000070
     1.3380      0.000050
     1.3385      0.000000
     1.3390      0.000880
     1.3395      0.000900
     1.3400      0.000000
     1.3405      0.000000
     1.3410      0.000060
     1.3415      0.000190
     1.3420      0.000000
     1.3425      0.000750
     1.3430      0.000930
     1.3435      0.000940
     1.3440      0.000000
     1.3445      0.000880
     1.3450      0.000110
     1.3455      0.000000
     1.3460      0.000410
     1.3465      0.000370
     1.3470      0.001090
     1.3475      0.000740
     1.3480      0.001070
     1.3485      0.000670
     1.3490      0.001210
     1.3495      0.000580
     1.3500      0.000110
     1.3505      0.000890
     1.3510      0.000500
     1.3515      0.001890
     1.3520      0.000870
     1.3525      0.000120
     1.3530      0.000440
     1.3535      0.000140
     1.3540      0.000380
     1.3545      0.000000
     1.3550      0.001200
     1.3555      0.001130
     1.3560      0.000350
     1.3565      0.000780
     1.3570      0.000270
     1.3575      0.000060
     1.3580      0.000070
     1.3585      0.000110
     1.3590      0.000200
     1.3595      0.000480
     1.3600      0.000010
     1.3605      0.000650
     1.3610      0.000910
     1.3615      0.000580
     1.3620      0.000080
     1.3625      0.000570
     1.3630      0.000040
     1.3635      0.000400
     1.3640      0.000030
     1.3645      0.001150
     1.3650      0.000910
     1.3655      0.001080
     1.3660      0.000320
     1.3665      0.000760
     1.3670      0.000000
     1.3675      0.000820
     1.3680      0.000440
     1.3685      0.000350
     1.3690      0.001130
     1.3695      0.001180
     1.3700      0.000880
     1.3705      0.001360
     1.3710      0.001200
     1.3715      0.000350
     1.3720      0.000050
     1.3725      0.000460
     1.3730      0.000000
     1.3735      0.000350
     1.3740      0.000660
     1.3745      0.000000
     1.3750      0.000220
     1.3755      0.000100
     1.3760      0.000400
     1.3765      0.000260
     1.3770      0.000270
     1.3775      0.000000
     1.3780      0.000050
     1.3785      0.000000
     1.3790      0.000370
     1.3795      0.000000
     1.3800      0.000440
     1.3805      0.000170
     1.3810      0.000130
     1.3815      0.000220
     1.3820      0.000460
     1.3825      0.000550
     1.3830      0.000940
     1.3835      0.000480
     1.3840      0.000470
     1.3845      0.000190
     1.3850      0.000020
     1.3855      0.000840
     1.3860      0.000000
     1.3865      0.000190
     1.3870      0.000230
     1.3875      0.000230
     1.3880      0.000220
     1.3885      0.000120
     1.3890      0.000920
     1.3895      0.000810
     1.3900      0.001560
     1.3905      0.001340
     1.3910      0.000010
     1.3915      0.000060
     1.3920      0.000850
     1.3925      0.000000
     1.3930      0.000020
     1.3935      0.000900
     1.3940      0.000900
     1.3945      0.000650
     1.3950      0.000860
     1.3955      0.000650
     1.3960      0.000070
     1.3965      0.000470
     1.3970      0.000250
     1.3975      0.000010
     1.3980      0.000160
     1.3985      0.000660
     1.3990      0.000020
     1.3995      0.000300
     1.4000      0.000150
     1.4005      0.000020
     1.4010      0.000680
     1.4015      0.000280
     1.4020      0.000110
     1.4025      0.000930
     1.4030      0.000570
     1.4035      0.000000
     1.4040      0.000440
     1.4045      0.000490
     1.4050      0.001150
     1.4055      0.000520
     1.4060      0.000750
     1.4065      0.000500
     1.4070      0.000000
     1.4075      0.000890
     1.4080      0.000690
     1.4085      0.000930
     1.4090      0.000670
     1.4095      0.000050
     1.4100      0.000570
     1.4105      0.000490
     1.4110      0.000000
     1.4115      0.000000
     1.4120      0.000650
     1.4125      0.000220
     1.4130      0.000380
     1.4135      0.000850
     1.4140      0.000050
     1.4145      0.000500
     1.4150      0.000300
     1.4155      0.000570
     1.4160      0.000420
     1.4165      0.000000
     1.4170      0.000000
     1.4175      0.001080
     1.4180      0.000850
     1.4185      0.000310
     1.4190      0.000450
     1.4195      0.000590
     1.4200      0.000000
     1.4205      0.000060
     1.4210      0.000250
     1.4215      0.000600
     1.4220      0.000540
     1.4225      0.000440
     1.4230      0.000580
     1.4235      0.000000
     1.4240      0.000410
     1.4245      0.000690
     1.4250      0.000080
     1.4255      0.000340
     1.4260      0.000770
     1.4265      0.000710
     1.4270      0.000900
     1.4275      0.000840
     1.4280      0.000690
     1.4285      0.001070
     1.4290      0.001230
     1.4295      0.000830
     1.4300      0.000760
     1.4305      0.001020
     1.4310      0.000320
     1.4315      0.001320
     1.4320      0.000190
     1.4325      0.000160
     1.4330      0.000000
     1.4335      0.001020
     1.4340      0.000200
     1.4345      0.000250
     1.4350      0.001170
     1.4355      0.000530
     1.4360      0.000980
     1.4365      0.000550
     1.4370      0.000830
     1.4375      0.000000
     1.4380      0.001150
     1.4385      0.001470
     1.4390      0.001060
     1.4395      0.001230
     1.4400      0.001200
     1.4405      0.000630
     1.4410      0.000530
     1.4415      0.001030
     1.4420      0.000470
     1.4425      0.000290
     1.4430      0.000130
     1.4435      0.000000
     1.4440      0.000020
     1.4445      0.000890
     1.4450      0.000410
     1.4455      0.000860
     1.4460      0.000460
     1.4465      0.000340
     1.4470      0.001100
     1.4475      0.000830
     1.4480      0.001280
     1.4485      0.000790
     1.4490      0.000550
     1.4495      0.000680
     1.4500      0.001050
     1.4505      0.000350
     1.4510      0.000150
     1.4515      0.001120
     1.4520      0.001380
     1.4525      0.000810
     1.4530      0.000320
     1.4535      0.000760
     1.4540      0.001310
     1.4545      0.000600
     1.4550      0.001140
     1.4555      0.000480
     1.4560      0.000000
     1.4565      0.000610
     1.4570      0.000040
     1.4575      0.000490
     1.4580      0.000200
     1.4585      0.000330
     1.4590      0.000000
     1.4595      0.000450
     1.4600      0.000150
     1.4605      0.000080
     1.4610      0.001300
     1.4615      0.000910
     1.4620      0.000070
     1.4625      0.000110
     1.4630      0.000000
     1.4635      0.000350
     1.4640      0.000590
     1.4645      0.000550
     1.4650      0.000730
     1.4655      0.001470
     1.4660      0.000830
     1.4665      0.000490
     1.4670      0.000740
     1.4675      0.000150
     1.4680      0.000260
     1.4685      0.000100
     1.4690      0.000500
     1.4695      0.001150
     1.4700      0.000000
     1.4705      0.000350
     1.4710      0.001250
     1.4715      0.000650
     1.4720      0.000630
     1.4725      0.000430
     1.4730      0.000000
     1.4735      0.000200
     1.4740      0.000160
     1.4745      0.000680
     1.4750      0.000630
     1.4755      0.000470
     1.4760      0.000340
     1.4765      0.000800
     1.4770      0.000180
     1.4775      0.000340
     1.4780      0.000000
     1.4785      0.000210
     1.4790      0.000110
     1.4795      0.000250
     1.4800      0.001480
     1.4805      0.000390
     1.4810      0.000070
     1.4815      0.000010
     1.4820      0.000650
     1.4825      0.000630
     1.4830      0.001090
     1.4835      0.000610
     1.4840      0.000200
     1.4845      0.000580
     1.4850      0.000360
     1.4855      0.000980
     1.4860      0.000210
     1.4865      0.000150
     1.4870      0.000920
     1.4875      0.000680
     1.4880      0.000430
     1.4885      0.000670
     1.4890      0.001090
     1.4895      0.000840
     1.4900      0.000120
     1.4905      0.000740
     1.4910      0.001010
     1.4915      0.000830
     1.4920      0.000780
     1.4925      0.001030
     1.4930      0.001010
     1.4935      0.000620
     1.4940      0.000890
     1.4945      0.000270
     1.4950      0.001030
     1.4955      0.000180
     1.4960      0.001070
     1.4965      0.001030
     1.4970      0.000450
     1.4975      0.000040
     1.4980      0.000090
     1.4985      0.000170
     1.4990      0.000830
     1.4995      0.000810
     1.5000      0.001040
     1.5005      0.000920
     1.5010      0.000740
     1.5015      0.000590
     1.5020      0.001160
     1.5025      0.000460
     1.5030      0.000680
     1.5035      0.000530
     1.5040      0.001280
     1.5045      0.001390
     1.5050      0.001640
     1.5055      0.001570
     1.5060      0.000280
     1.5065      0.001370
     1.5070      0.001310
     1.5075      0.001620
     1.5080      0.000020
     1.5085      0.001200
     1.5090      0.001940
     1.5095      0.001700
     1.5100      0.001080
     1.5105      0.001100
     1.5110      0.001530
     1.5115      0.001090
     1.5120      0.001220
     1.5125      0.001300
     1.5130      0.000980
     1.5135      0.000700
     1.5140      0.000970
     1.5145      0.000520
     1.5150      0.001030
     1.5155      0.001110
     1.5160      0.001290
     1.5165      0.000700
     1.5170      0.000580
     1.5175      0.001090
     1.5180      0.000240
     1.5185      0.000230
     1.5190      0.000610
     1.5195      0.000140
     1.5200      0.000850
     1.5205      0.000880
     1.5210      0.000540
     1.5215      0.000550
     1.5220      0.001180
     1.5225      0.000200
     1.5230      0.000510
     1.5235      0.000670
     1.5240      0.000470
     1.5245      0.000050
     1.5250      0.000050
     1.5255      0.000210
     1.5260      0.000700
     1.5265      0.000100
     1.5270      0.000270
     1.5275      0.000410
     1.5280      0.000750
     1.5285      0.000780
     1.5290      0.000420
     1.5295      0.000540
     1.5300      0.000090
     1.5305      0.000010
     1.5310      0.000470
     1.5315      0.000870
     1.5320      0.000390
     1.5325      0.000670
     1.5330      0.000530
     1.5335      0.000540
     1.5340      0.000730
     1.5345      0.000260
     1.5350      0.000140
     1.5355      0.000760
     1.5360      0.000190
     1.5365      0.000120
     1.5370      0.000240
     1.5375      0.000370
     1.5380      0.000740
     1.5385      0.000600
     1.5390      0.000190
     1.5395      0.000070
     1.5400      0.000120
     1.5405      0.000000
     1.5410      0.000000
     1.5415      0.000150
     1.5420      0.000040
     1.5425      0.000000
     1.5430      0.000690
     1.5435      0.000300
     1.5440      0.001080
     1.5445      0.000430
     1.5450      0.000000
     1.5455      0.000280
     1.5460      0.000680
     1.5465      0.000380
     1.5470      0.001280
     1.5475      0.000730
     1.5480      0.000230
     1.5485      0.000020
     1.5490      0.000540
     1.5495      0.000980
     1.5500      0.000250
     1.5505      0.000640
     1.5510      0.000000
     1.5515      0.000000
     1.5520      0.000000
     1.5525      0.000930
     1.5530      0.000370
     1.5535      0.001090
     1.5540      0.000430
     1.5545      0.000490
     1.5550      0.000160
     1.5555      0.000720
     1.5560      0.000330
     1.5565      0.001110
     1.5570      0.000120
     1.5575      0.000670
     1.5580      0.000180
     1.5585      0.000380
     1.5590      0.000230
     1.5595      0.000790
     1.5600      0.001110
     1.5605      0.000730
     1.5610      0.000790
     1.5615      0.000310
     1.5620      0.000800
     1.5625      0.002060
     1.5630      0.001970
     1.5635      0.001760
     1.5640      0.002070
     1.5645      0.002790
     1.5650      0.003440
     1.5655      0.004110
     1.5660      0.005620
     1.5665      0.006620
     1.5670      0.008890
     1.5675      0.010030
     1.5680      0.010940
     1.5685      0.010700
     1.5690      0.008380
     1.5695      0.007410
     1.5700      0.004860
     1.5705      0.003930
     1.5710      0.003620
     1.5715      0.002570
     1.5720      0.001960
     1.5725      0.002610
     1.5730      0.001980
     1.5735      0.001390
     1.5740      0.001400
     1.5745      0.001140
     1.5750      0.000880
     1.5755      0.000750
     1.5760      0.000990
     1.5765      0.000620
     1.5770      0.000590
     1.5775      0.000640
     1.5780      0.000660
     1.5785      0.000530
     1.5790      0.000140
     1.5795      0.000230
     1.5800      0.000540
     1.5805      0.000510
     1.5810      0.000000
     1.5815      0.000000
     1.5820      0.000000
     1.5825      0.000000
     1.5830      0.000450
     1.5835      0.000230
     1.5840      0.000140
     1.5845      0.000600
     1.5850      0.000830
     1.5855      0.001140
     1.5860      0.000480
     1.5865      0.000410
     1.5870      0.000710
     1.5875      0.001020
     1.5880      0.000750
     1.5885      0.000940
     1.5890      0.001000
     1.5895      0.000420
     1.5900      0.000670
     1.5905      0.000420
     1.5910      0.000740
     1.5915      0.000810
     1.5920      0.001020
     1.5925      0.000130
     1.5930      0.000290
     1.5935      0.000060
     1.5940      0.000260
     1.5945      0.000810
     1.5950      0.000000
     1.5955      0.000000
     1.5960      0.000000
     1.5965      0.000050
     1.5970      0.000030
     1.5975      0.000000
     1.5980      0.000000
     1.5985      0.000000
     1.5990      0.000000
     1.5995      0.000000
     1.6000      0.000000
     1.6005      0.000170
     1.6010      0.000710
     1.6015      0.000360
     1.6020      0.000430
     1.6025      0.000300
     1.6030      0.000000
     1.6035      0.000260
     1.6040      0.000470
     1.6045      0.000290
     1.6050      0.000610
     1.6055      0.000450
     1.6060      0.000840
     1.6065      0.000330
     1.6070      0.000450
     1.6075      0.000340
     1.6080      0.000860
     1.6085      0.000270
     1.6090      0.000000
     1.6095      0.000370
     1.6100      0.000490
     1.6105      0.000000
     1.6110      0.000080
     1.6115      0.000000
     1.6120      0.000000
     1.6125      0.000000
     1.6130      0.000380
     1.6135      0.000760
     1.6140      0.000320
     1.6145      0.000410
     1.6150      0.000760
     1.6155      0.000890
     1.6160      0.000420
     1.6165      0.000200
     1.6170      0.000590
     1.6175      0.001190
     1.6180      0.001050
     1.6185      0.000490
     1.6190      0.000790
     1.6195      0.001300
     1.6200      0.001330
     1.6205      0.001710
     1.6210      0.001590
     1.6215      0.002440
     1.6220      0.002910
     1.6225      0.002460
     1.6230      0.001520
     1.6235      0.001990
     1.6240      0.001600
     1.6245      0.001230
     1.6250      0.001030
     1.6255      0.000860
     1.6260      0.000840
     1.6265      0.001250
     1.6270      0.000430
     1.6275      0.000030
     1.6280      0.000460
     1.6285      0.000020
     1.6290      0.000280
     1.6295      0.000250
     1.6300      0.000100
     1.6305      0.000250
     1.6310      0.000520
     1.6315      0.000000
     1.6320      0.000020
     1.6325      0.000000
     1.6330      0.000000
     1.6335      0.000250
     1.6340      0.000100
     1.6345      0.000030
     1.6350      0.000430
     1.6355      0.000660
     1.6360      0.000650
     1.6365      0.000030
     1.6370      0.000000
     1.6375      0.000000
     1.6380      0.000030
     1.6385      0.000000
     1.6390      0.000000
     1.6395      0.000000
     1.6400      0.000030
     1.6405      0.000000
     1.6410      0.000000
     1.6415      0.000000
     1.6420      0.000030
     1.6425      0.000000
     1.6430      0.000000
     1.6435      0.000000
     1.6440      0.000000
     1.6445      0.000000
     1.6450      0.000000
     1.6455      0.000000
     1.6460      0.000000
     1.6465      0.000000
     1.6470      0.000000
     1.6475      0.000000
     1.6480      0.000000
     1.6485      0.000030
     1.6490      0.000080
     1.6495      0.000230
     1.6500      0.000000
     1.6505      0.000110
     1.6510      0.000000
     1.6515      0.000000
     1.6520      0.000000
     1.6525      0.000000
     1.6530      0.000000
     1.6535      0.000110
     1.6540      0.000010
     1.6545      0.000380
     1.6550      0.000000
     1.6555      0.000000
     1.6560      0.000000
     1.6565      0.000000
     1.6570      0.000000
     1.6575      0.000290
     1.6580      0.000000
     1.6585      0.000050
     1.6590      0.000000
     1.6595      0.000000
     1.6600      0.000230
     1.6605      0.000020
     1.6610      0.000000
     1.6615      0.000070
     1.6620      0.000590
     1.6625      0.000050
     1.6630      0.000280
     1.6635      0.000280
     1.6640      0.000000
     1.6645      0.000000
     1.6650      0.000000
     1.6655      0.000070
     1.6660      0.000000
     1.6665      0.000240
     1.6670      0.000340
     1.6675      0.000150
     1.6680      0.000000
     1.6685      0.000140
     1.6690      0.000110
     1.6695      0.000020
     1.6700      0.000010
     1.6705      0.000200
     1.6710      0.000050
     1.6715      0.000260
     1.6720      0.000530
     1.6725      0.000110
     1.6730      0.000000
     1.6735      0.000000
     1.6740      0.000000
     1.6745      0.000330
     1.6750      0.000160
     1.6755      0.000170
     1.6760      0.000050
     1.6765      0.000000
     1.6770      0.000000
     1.6775      0.000170
     1.6780      0.000080
     1.6785      0.000420
     1.6790      0.000000
     1.6795      0.000000
     1.6800      0.000000
     1.6805      0.000020
     1.6810      0.000210
     1.6815      0.000000
     1.6820      0.000020
     1.6825      0.000000
     1.6830      0.000000
     1.6835      0.000020
     1.6840      0.000000
     1.6845      0.000040
     1.6850      0.000090
     1.6855      0.000000
     1.6860      0.000060
     1.6865      0.000000
     1.6870      0.000000
     1.6875      0.000050
     1.6880      0.000020
     1.6885      0.000000
     1.6890      0.000000
     1.6895      0.000230
     1.6900      0.000550
     1.6905      0.000050
     1.6910      0.000450
     1.6915      0.000030
     1.6920      0.000000
     1.6925      0.000000
     1.6930      0.000000
     1.6935      0.000000
     1.6940      0.000000
     1.6945      0.000000
     1.6950      0.000060
     1.6955      0.000000
     1.6960      0.000220
     1.6965      0.000250
     1.6970      0.000030
     1.6975      0.000000
     1.6980      0.000000
     1.6985      0.000000
     1.6990      0.000040
     1.6995      0.000340
     1.7000      0.000210
     1.7005      0.000000
     1.7010      0.000000
     1.7015      0.000000
     1.7020      0.000000
     1.7025      0.000000
     1.7030      0.000380
     1.7035      0.000440
     1.7040      0.000020
     1.7045      0.000220
     1.7050      0.000270
     1.7055      0.000000
     1.7060      0.000350
     1.7065      0.000720
     1.7070      0.000390
     1.7075      0.000060
     1.7080      0.000000
     1.7085      0.000000
     1.7090      0.000400
     1.7095      0.000440
     1.7100      0.000220
     1.7105      0.000530
     1.7110      0.000630
     1.7115      0.000860
     1.7120      0.000370
     1.7125      0.000140
     1.7130      0.000010
     1.7135      0.000240
     1.7140      0.000490
     1.7145      0.000310
     1.7150      0.000390
     1.7155      0.000250
     1.7160      0.000510
     1.7165      0.000060
     1.7170      0.000650
     1.7175      0.000090
     1.7180      0.000460
     1.7185      0.000570
     1.7190      0.000590
     1.7195      0.000750
     1.7200      0.000430
     1.7205      0.000400
     1.7210      0.000170
     1.7215      0.000140
     1.7220      0.000410
     1.7225      0.000160
     1.7230      0.000110
     1.7235      0.000340
     1.7240      0.000350
     1.7245      0.000390
     1.7250      0.000140
     1.7255      0.000060
     1.7260      0.000000
     1.7265      0.000000
     1.7270      0.000000
     1.7275      0.000000
     1.7280      0.000000
     1.7285      0.000110
     1.7290      0.000030
     1.7295      0.000110
     1.7300      0.000000
     1.7305      0.000000
     1.7310      0.000070
     1.7315      0.000380
     1.7320      0.000320
     1.7325      0.000200
     1.7330      0.000730
     1.7335      0.000150
     1.7340      0.000000
     1.7345      0.000000
     1.7350      0.000310
     1.7355      0.000150
     1.7360      0.000290
     1.7365      0.000550
     1.7370      0.000550
     1.7375      0.000000
     1.7380      0.000020
     1.7385      0.000470
     1.7390      0.000000
     1.7395      0.000130
     1.7400      0.000170
     1.7405      0.000760
     1.7410      0.000670
     1.7415      0.000030
     1.7420      0.000000
     1.7425      0.000110
     1.7430      0.000830
     1.7435      0.000100
     1.7440      0.000000
     1.7445      0.000000
     1.7450      0.000090
     1.7455      0.000500
     1.7460      0.000000
     1.7465      0.000190
     1.7470      0.000320
     1.7475      0.000380
     1.7480      0.000000
     1.7485      0.000000
     1.7490      0.000000
     1.7495      0.000670
     1.7500      0.000770
     1.7505      0.000000
     1.7510      0.000020
     1.7515      0.000040
     1.7520      0.000390
     1.7525      0.000330
     1.7530      0.000310
     1.7535      0.000400
     1.7540      0.000750
     1.7545      0.000300
     1.7550      0.000460
     1.7555      0.000650
     1.7560      0.000370
     1.7565      0.000050
     1.7570      0.000000
     1.7575      0.000000
     1.7580      0.000250
     1.7585      0.000040
     1.7590      0.000000
     1.7595      0.000300
     1.7600      0.000740
     1.7605      0.000160
     1.7610      0.000080
     1.7615      0.000410
     1.7620      0.000240
     1.7625      0.000010
     1.7630      0.000000
     1.7635      0.000050
     1.7640      0.000340
     1.7645      0.000260
     1.7650      0.000000
     1.7655      0.000000
     1.7660      0.000030
     1.7665      0.000650
     1.7670      0.000360
     1.7675      0.000270
     1.7680      0.000760
     1.7685      0.000380
     1.7690      0.000290
     1.7695      0.000920
     1.7700      0.000720
     1.7705      0.000490
     1.7710      0.000160
     1.7715      0.000370
     1.7720      0.000250
     1.7725      0.000340
     1.7730      0.000220
     1.7735      0.000090
     1.7740      0.000450
     1.7745      0.000260
     1.7750      0.000160
     1.7755      0.000000
     1.7760      0.000480
     1.7765      0.000310
     1.7770      0.000270
     1.7775      0.000040
     1.7780      0.000050
     1.7785      0.000120
     1.7790      0.000000
     1.7795      0.000000
     1.7800      0.000120
     1.7805      0.000270
     1.7810      0.000010
     1.7815      0.000000
     1.7820      0.000230
     1.7825      0.000030
     1.7830      0.000000
     1.7835      0.000000
     1.7840      0.000040
     1.7845      0.000000
     1.7850      0.000110
     1.7855      0.000040
     1.7860      0.000460
     1.7865      0.000040
     1.7870      0.000420
     1.7875      0.000320
     1.7880      0.000550
     1.7885      0.000400
     1.7890      0.000120
     1.7895      0.000330
     1.7900      0.000470
     1.7905      0.000000
     1.7910      0.000370
     1.7915      0.000450
     1.7920      0.000350
     1.7925      0.000340
     1.7930      0.000450
     1.7935      0.000390
     1.7940      0.000460
     1.7945      0.000290
     1.7950      0.000110
     1.7955      0.000060
     1.7960      0.000720
     1.7965      0.000310
     1.7970      0.000000
     1.7975      0.000000
     1.7980      0.000160
     1.7985      0.000090
     1.7990      0.000000
     1.7995      0.000000
     1.8000      0.000000
     1.8005      0.000000
     1.8010      0.000080
     1.8015      0.000450
     1.8020      0.000310
     1.8025      0.000080
     1.8030      0.000000
     1.8035      0.000000
     1.8040      0.000000
     1.8045      0.000000
     1.8050      0.000000
     1.8055      0.000280
     1.8060      0.000000
     1.8065      0.000000
     1.8070      0.000000
     1.8075      0.000000
     1.8080      0.000170
     1.8085      0.000160
     1.8090      0.000570
     1.8095      0.000250
     1.8100      0.000070
     1.8105      0.000400
     1.8110      0.000320
     1.8115      0.000270
     1.8120      0.000380
     1.8125      0.000470
     1.8130      0.000470
     1.8135      0.000370
     1.8140      0.000230
     1.8145      0.000530
     1.8150      0.000410
     1.8155      0.000430
     1.8160      0.000740
     1.8165      0.000170
     1.8170      0.000280
     1.8175      0.001060
     1.8180      0.000270
     1.8185      0.000030
     1.8190      0.000080
     1.8195      0.000390
     1.8200      0.000460
     1.8205      0.000000
     1.8210      0.000000
     1.8215      0.000010
     1.8220      0.000010
     1.8225      0.000090
     1.8230      0.000050
     1.8235      0.000000
     1.8240      0.000000
     1.8245      0.000010
     1.8250      0.000000
     1.8255      0.000000
     1.8260      0.000000
     1.8265      0.000000
     1.8270      0.000000
     1.8275      0.000020
     1.8280      0.000180
     1.8285      0.000000
     1.8290      0.000000
     1.8295      0.000010
     1.8300      0.000010
     1.8305      0.000000
     1.8310      0.000090
     1.8315      0.000110
     1.8320      0.000700
     1.8325      0.000690
     1.8330      0.000080
     1.8335      0.000360
     1.8340      0.000330
     1.8345      0.000200
     1.8350      0.000480
     1.8355      0.000400
     1.8360      0.000790
     1.8365      0.000490
     1.8370      0.000420
     1.8375      0.000530
     1.8380      0.000570
     1.8385      0.000140
     1.8390      0.000230
     1.8395      0.000220
     1.8400      0.000050
     1.8405      0.000100
     1.8410      0.000860
     1.8415      0.000770
     1.8420      0.000610
     1.8425      0.000650
     1.8430      0.000230
     1.8435      0.000170
     1.8440      0.000030
     1.8445      0.000000
     1.8450      0.000000
     1.8455      0.000000
     1.8460      0.000000
     1.8465      0.000000
     1.8470      0.000000
     1.8475      0.000000
     1.8480      0.000000
     1.8485      0.000000
     1.8490      0.000500
     1.8495      0.000250
     1.8500      0.000010
     1.8505      0.000040
     1.8510      0.000030
     1.8515      0.000220
     1.8520      0.000000
     1.8525      0.000000
     1.8530      0.000000
     1.8535      0.000000
     1.8540      0.000020
     1.8545      0.000190
     1.8550      0.000240
     1.8555      0.000020
     1.8560      0.000050
     1.8565      0.000590
     1.8570      0.000840
     1.8575      0.000120
     1.8580      0.000460
     1.8585      0.000750
     1.8590      0.000340
     1.8595      0.000070
     1.8600      0.000310
     1.8605      0.000990
     1.8610      0.001140
     1.8615      0.000460
     1.8620      0.000680
     1.8625      0.000730
     1.8630      0.000190
     1.8635      0.000210
     1.8640      0.000350
     1.8645      0.000140
     1.8650      0.000330
     1.8655      0.000820
     1.8660      0.000490
     1.8665      0.000530
     1.8670      0.000660
     1.8675      0.000880
     1.8680      0.001470
     1.8685      0.000640
     1.8690      0.000250
     1.8695      0.000100
     1.8700      0.000370
     1.8705      0.000080
     1.8710      0.000060
     1.8715      0.000490
     1.8720      0.000360
     1.8725      0.000440
     1.8730      0.000500
     1.8735      0.000550
     1.8740      0.000200
     1.8745      0.000180
     1.8750      0.000040
     1.8755      0.000390
     1.8760      0.000490
     1.8765      0.000680
     1.8770      0.000800
     1.8775      0.000520
     1.8780      0.000850
     1.8785      0.000960
     1.8790      0.000660
     1.8795      0.000660
     1.8800      0.000690
     1.8805      0.000500
     1.8810      0.000230
     1.8815      0.000390
     1.8820      0.000460
     1.8825      0.000360
     1.8830      0.000360
     1.8835      0.000060
     1.8840      0.000070
     1.8845      0.000080
     1.8850      0.000070
     1.8855      0.000240
     1.8860      0.000020
     1.8865      0.000450
     1.8870      0.000930
     1.8875      0.000380
     1.8880      0.000240
     1.8885      0.000210
     1.8890      0.000320
     1.8895      0.000230
     1.8900      0.000290
     1.8905      0.000210
     1.8910      0.000430
     1.8915      0.000460
     1.8920      0.000140
     1.8925      0.000650
     1.8930      0.000740
     1.8935      0.000280
     1.8940      0.000310
     1.8945      0.000330
     1.8950      0.000020
     1.8955      0.000400
     1.8960      0.000440
     1.8965      0.000160
     1.8970      0.000170
     1.8975      0.000400
     1.8980      0.000530
     1.8985      0.000630
     1.8990      0.000750
     1.8995      0.000470
     1.9000      0.000280
     1.9005      0.000340
     1.9010      0.000490
     1.9015      0.000590
     1.9020      0.000390
     1.9025      0.000060
     1.9030      0.000020
     1.9035      0.000040
     1.9040      0.000110
     1.9045      0.000140
     1.9050      0.000190
     1.9055      0.000710
     1.9060      0.000620
     1.9065      0.000680
     1.9070      0.000730
     1.9075      0.000720
     1.9080      0.000600
     1.9085      0.000180
     1.9090      0.000000
     1.9095      0.000000
     1.9100      0.000030
     1.9105      0.000410
     1.9110      0.000560
     1.9115      0.000260
     1.9120      0.000080
     1.9125      0.000210
     1.9130      0.000400
     1.9135      0.000510
     1.9140      0.000200
     1.9145      0.000330
     1.9150      0.000640
     1.9155      0.000720
     1.9160      0.000000
     1.9165      0.000070
     1.9170      0.000440
     1.9175      0.000340
     1.9180      0.000570
     1.9185      0.000550
     1.9190      0.000560
     1.9195      0.000670
     1.9200      0.000690
     1.9205      0.000560
     1.9210      0.000150
     1.9215      0.000020
     1.9220      0.000020
     1.9225      0.000460
     1.9230      0.000750
     1.9235      0.000390
     1.9240      0.000110
     1.9245      0.000040
     1.9250      0.000120
     1.9255      0.000050
     1.9260      0.000320
     1.9265      0.000290
     1.9270      0.000220
     1.9275      0.000150
     1.9280      0.000020
     1.9285      0.000000
     1.9290      0.000000
     1.9295      0.000000
     1.9300      0.000050
     1.9305      0.000200
     1.9310      0.000570
     1.9315      0.000890
     1.9320      0.000320
     1.9325      0.000660
     1.9330      0.001010
     1.9335      0.000740
     1.9340      0.001020
     1.9345      0.001270
     1.9350      0.001110
     1.9355      0.000840
     1.9360      0.000420
     1.9365      0.000140
     1.9370      0.000160
     1.9375      0.000190
     1.9380      0.000360
     1.9385      0.000490
     1.9390      0.000450
     1.9395      0.000250
     1.9400      0.000040
     1.9405      0.000000
     1.9410      0.000130
     1.9415      0.000210
     1.9420      0.000090
     1.9425      0.000290
     1.9430      0.000350
     1.9435      0.000470
     1.9440      0.000500
     1.9445      0.000370
     1.9450      0.000440
     1.9455      0.000110
     1.9460      0.000000
     1.9465      0.000000
     1.9470      0.000560
     1.9475      0.001070
     1.9480      0.000290
     1.9485      0.000020
     1.9490      0.000320
     1.9495      0.000340
     1.9500      0.000100
     1.9505      0.000610
     1.9510      0.000490
     1.9515      0.000060
     1.9520      0.000130
     1.9525      0.000180
     1.9530      0.000330
     1.9535      0.000410
     1.9540      0.000330
     1.9545      0.000370
     1.9550      0.000000
     1.9555      0.000330
     1.9560      0.001040
     1.9565      0.000890
     1.9570      0.000460
     1.9575      0.000670
     1.9580      0.000560
     1.9585      0.000070
     1.9590      0.000170
     1.9595      0.000690
     1.9600      0.000370
     1.9605      0.000380
     1.9610      0.000340
     1.9615      0.000280
     1.9620      0.000270
     1.9625      0.000140
     1.9630      0.000250
     1.9635      0.000250
     1.9640      0.000290
     1.9645      0.000380
     1.9650      0.000640
     1.9655      0.000950
     1.9660      0.000210
     1.9665      0.000020
     1.9670      0.000080
     1.9675      0.000000
     1.9680      0.000160
     1.9685      0.000190
     1.9690      0.000370
     1.9695      0.000420
     1.9700      0.000110
     1.9705      0.000330
     1.9710      0.000450
     1.9715      0.000340
     1.9720      0.000200
     1.9725      0.000290
     1.9730      0.000620
     1.9735      0.000490
     1.9740      0.000250
     1.9745      0.000250
     1.9750      0.000650
     1.9755      0.000800
     1.9760      0.000820
     1.9765      0.000520
     1.9770      0.000210
     1.9775      0.000500
     1.9780      0.000730
     1.9785      0.000610
     1.9790      0.000430
     1.9795      0.000590
     1.9800      0.000540
     1.9805      0.000270
     1.9810      0.000190
     1.9815      0.000390
     1.9820      0.000240
     1.9825      0.000500
     1.9830      0.000900
     1.9835      0.000720
     1.9840      0.000470
     1.9845      0.000260
     1.9850      0.000040
     1.9855      0.000290
     1.9860      0.000580
     1.9865      0.000370
     1.9870      0.000000
     1.9875      0.000060
     1.9880      0.000480
     1.9885      0.000610
     1.9890      0.000280
     1.9895      0.000340
     1.9900      0.000650
     1.9905      0.000230
     1.9910      0.000090
     1.9915      0.000310
     1.9920      0.000420
     1.9925      0.000530
     1.9930      0.000840
     1.9935      0.000610
     1.9940      0.000110
     1.9945      0.000000
     1.9950      0.000020
     1.9955      0.000350
     1.9960      0.000850
     1.9965      0.001110
     1.9970      0.000650
     1.9975      0.000610
     1.9980      0.000610
     1.9985      0.000300
     1.9990      0.000690
     1.9995      0.000600
     2.0000      0.000050
     2.0005      0.000000
     2.0010      0.000380
     2.0015      0.000660
     2.0020      0.000800
     2.0025      0.000840
     2.0030      0.000360
     2.0035      0.000270
     2.0040      0.000250
     2.0045      0.000040
     2.0050      0.000130
     2.0055      0.000030
     2.0060      0.000000
     2.0065      0.000000
     2.0070      0.000380
     2.0075      0.001000
     2.0080      0.000980
     2.0085      0.000990
     2.0090      0.001170
     2.0095      0.000830
     2.0100      0.000530
     2.0105      0.000450
     2.0110      0.000110
     2.0115      0.000080
     2.0120      0.000330
     2.0125      0.000630
     2.0130      0.000690
     2.0135      0.000470
     2.0140      0.000500
     2.0145      0.000710
     2.0150      0.000730
     2.0155      0.000980
     2.0160      0.000670
     2.0165      0.000140
     2.0170      0.000000
     2.0175      0.000110
     2.0180      0.000170
     2.0185      0.000140
     2.0190      0.000220
     2.0195      0.000360
     2.0200      0.000590
     2.0205      0.000600
     2.0210      0.000310
     2.0215      0.000020
     2.0220      0.000000
     2.0225      0.000010
     2.0230      0.000130
     2.0235      0.000270
     2.0240      0.000260
     2.0245      0.000350
     2.0250      0.000680
     2.0255      0.000760
     2.0260      0.000710
     2.0265      0.000390
     2.0270      0.000390
     2.0275      0.000650
     2.0280      0.000700
     2.0285      0.000240
     2.0290      0.000180
     2.0295      0.000490
     2.0300      0.000490
     2.0305      0.000280
     2.0310      0.000130
     2.0315      0.000220
     2.0320      0.000360
     2.0325      0.000090
     2.0330      0.000000
     2.0335      0.000350
     2.0340      0.000760
     2.0345      0.000890
     2.0350      0.000650
     2.0355      0.000160
     2.0360      0.000450
     2.0365      0.000820
     2.0370      0.001010
     2.0375      0.000610
     2.0380      0.000260
     2.0385      0.000670
     2.0390      0.000700
     2.0395      0.000290
     2.0400      0.000420
     2.0405      0.000760
     2.0410      0.000560
     2.0415      0.000680
     2.0420      0.000790
     2.0425      0.000380
     2.0430      0.000710
     2.0435      0.001010
     2.0440      0.000760
     2.0445      0.000470
     2.0450      0.000240
     2.0455      0.000180
     2.0460      0.000000
     2.0465      0.000050
     2.0470      0.000380
     2.0475      0.000640
     2.0480      0.000400
     2.0485      0.000160
     2.0490      0.000130
     2.0495      0.000160
     2.0500      0.000210
     2.0505      0.000180
     2.0510      0.000030
     2.0515      0.000290
     2.0520      0.000490
     2.0525      0.000200
     2.0530      0.000390
     2.0535      0.000470
     2.0540      0.000460
     2.0545      0.000680
     2.0550      0.000820
     2.0555      0.000570
     2.0560      0.000440
     2.0565      0.000370
     2.0570      0.000190
     2.0575      0.000000
     2.0580      0.000000
     2.0585      0.000000
     2.0590      0.000360
     2.0595      0.000140
     2.0600      0.000000
     2.0605      0.000100
     2.0610      0.000200
     2.0615      0.000000
     2.0620      0.000150
     2.0625      0.000550
     2.0630      0.000150
     2.0635      0.000000
     2.0640      0.000070
     2.0645      0.000000
     2.0650      0.000000
     2.0655      0.000000
     2.0660      0.000040
     2.0665      0.000000
     2.0670      0.000000
     2.0675      0.000060
     2.0680      0.000070
     2.0685      0.000000
     2.0690      0.000040
     2.0695      0.000290
     2.0700      0.000590
     2.0705      0.000760
     2.0710      0.000710
     2.0715      0.000700
     2.0720      0.000570
     2.0725      0.000550
     2.0730      0.000870
     2.0735      0.001080
     2.0740      0.001210
     2.0745      0.001070
     2.0750      0.001100
     2.0755      0.001280
     2.0760      0.001430
     2.0765      0.001170
     2.0770      0.001070
     2.0775      0.001050
     2.0780      0.001150
     2.0785      0.001330
     2.0790      0.001020
     2.0795      0.001170
     2.0800      0.001390
     2.0805      0.001150
     2.0810      0.000940
     2.0815      0.001140
     2.0820      0.001560
     2.0825      0.001550
     2.0830      0.001500
     2.0835      0.001350
     2.0840      0.001070
     2.0845      0.001050
     2.0850      0.001250
     2.0855      0.001620
     2.0860      0.001570
     2.0865      0.001340
     2.0870      0.001610
     2.0875      0.001670
     2.0880      0.001270
     2.0885      0.001000
     2.0890      0.001200
     2.0895      0.001340
     2.0900      0.001090
     2.0905      0.000610
     2.0910      0.000660
     2.0915      0.001090
     2.0920      0.001090
     2.0925      0.001180
     2.0930      0.001270
     2.0935      0.001250
     2.0940      0.001420
     2.0945      0.001380
     2.0950      0.001570
     2.0955      0.002350
     2.0960      0.002630
     2.0965      0.002430
     2.0970      0.002460
     2.0975      0.002720
     2.0980      0.003040
     2.0985      0.003030
     2.0990      0.003280
     2.0995      0.004180
     2.1000      0.004960
     2.1005      0.005460
     2.1010      0.005660
     2.1015      0.006180
     2.1020      0.006890
     2.1025      0.007780
     2.1030      0.008870
     2.1035      0.010350
     2.1040      0.012400
     2.1045      0.014660
     2.1050      0.017170
     2.1055      0.020420
     2.1060      0.024820
     2.1065      0.030640
     2.1070      0.038060
     2.1075      0.047290
     2.1080      0.059980
     2.1085      0.077130
     2.1090      0.099710
     2.1095      0.130670
     2.1100      0.171830
     2.1105      0.224830
     2.1110      0.292950
     2.1115      0.377640
     2.1120      0.476990
     2.1125      0.584780
     2.1130      0.691320
     2.1135      0.786400
     2.1140      0.860480
     2.1145      0.909260
     2.1150      0.937590
     2.1155      0.949820
     2.1160      0.951340
     2.1165      0.947770
     2.1170      0.941810
     2.1175      0.934610
     2.1180      0.928780
     2.1185      0.925350
     2.1190      0.922850
     2.1195      0.921140
     2.1200      0.920760
     2.1205      0.920660
     2.1210      0.920840
     2.1215      0.921220
     2.1220      0.921510
     2.1225      0.921990
     2.1230      0.922220
     2.1235      0.922050
     2.1240      0.921780
     2.1245      0.921640
     2.1250      0.922770
     2.1255      0.924910
     2.1260      0.927200
     2.1265      0.929650
     2.1270      0.932360
     2.1275      0.936040
     2.1280      0.940230
     2.1285      0.944840
     2.1290      0.949460
     2.1295      0.953660
     2.1300      0.957990
     2.1305      0.962130
     2.1310      0.965450
     2.1315      0.967650
     2.1320      0.969220
     2.1325      0.969710
     2.1330      0.968700
     2.1335      0.967030
     2.1340      0.963980
     2.1345      0.959570
     2.1350      0.955050
     2.1355      0.950200
     2.1360      0.945150
     2.1365      0.939900
     2.1370      0.934750
     2.1375      0.929820
     2.1380      0.925440
     2.1385      0.921830
     2.1390      0.918610
     2.1395      0.915760
     2.1400      0.913590
     2.1405      0.912330
     2.1410      0.911560
     2.1415      0.911690
     2.1420      0.911780
     2.1425      0.911800
     2.1430      0.911820
     2.1435      0.911360
     2.1440      0.911380
     2.1445      0.911060
     2.1450      0.910050
     2.1455      0.909570
     2.1460      0.909620
     2.1465      0.910540
     2.1470      0.912540
     2.1475      0.915900
     2.1480      0.920610
     2.1485      0.926220
     2.1490      0.932980
     2.1495      0.939240
     2.1500      0.941110
     2.1505      0.935590
     2.1510      0.918660
     2.1515      0.884720
     2.1520      0.829300
     2.1525      0.752280
     2.1530      0.657490
     2.1535      0.552710
     2.1540      0.449510
     2.1545      0.356150
     2.1550      0.276970
     2.1555      0.213200
     2.1560      0.163510
     2.1565      0.125800
     2.1570      0.097370
     2.1575      0.075830
     2.1580      0.059670
     2.1585      0.047550
     2.1590      0.038310
     2.1595      0.031000
     2.1600      0.025460
     2.1605      0.021510
     2.1610      0.018360
     2.1615      0.015700
     2.1620      0.013340
     2.1625      0.011030
     2.1630      0.009510
     2.1635      0.008710
     2.1640      0.007740
     2.1645      0.006950
     2.1650      0.006590
     2.1655      0.006050
     2.1660      0.005730
     2.1665      0.005430
     2.1670      0.004760
     2.1675      0.004370
     2.1680      0.003720
     2.1685      0.003210
     2.1690      0.003410
     2.1695      0.003510
     2.1700      0.003460
     2.1705      0.003070
     2.1710      0.002510
     2.1715      0.002280
     2.1720      0.002230
     2.1725      0.002510
     2.1730      0.002460
     2.1735      0.002080
     2.1740      0.001910
     2.1745      0.001650
     2.1750      0.001520
     2.1755      0.001950
     2.1760      0.002300
     2.1765      0.002300
     2.1770      0.002410
     2.1775      0.002390
     2.1780      0.002510
     2.1785      0.002720
     2.1790      0.002640
     2.1795      0.002550
     2.1800      0.002480
     2.1805      0.002300
     2.1810      0.002130
     2.1815      0.002070
     2.1820      0.002180
     2.1825      0.002060
     2.1830      0.001690
     2.1835      0.001730
     2.1840      0.001860
     2.1845      0.001920
     2.1850      0.002090
     2.1855      0.001960
     2.1860      0.001570
     2.1865      0.001580
     2.1870      0.002150
     2.1875      0.002500
     2.1880      0.002400
     2.1885      0.002410
     2.1890      0.002320
     2.1895      0.002050
     2.1900      0.001960
     2.1905      0.002030
     2.1910      0.002100
     2.1915      0.001980
     2.1920      0.002000
     2.1925      0.002050
     2.1930      0.002030
     2.1935      0.002150
     2.1940      0.002050
     2.1945      0.001780
     2.1950      0.001580
     2.1955      0.001360
     2.1960      0.001240
     2.1965      0.001560
     2.1970      0.001840
     2.1975      0.001370
     2.1980      0.001020
     2.1985      0.001170
     2.1990      0.001140
     2.1995      0.000930
     2.2000      0.001060
     2.2005      0.001530
     2.2010      0.001700
     2.2015      0.001420
     2.2020      0.001140
     2.2025      0.000880
     2.2030      0.000680
     2.2035      0.000750
     2.2040      0.000630
     2.2045      0.000410
     2.2050      0.000650
     2.2055      0.001040
     2.2060      0.001120
     2.2065      0.000710
     2.2070      0.000200
     2.2075      0.000070
     2.2080      0.000090
     2.2085      0.000330
     2.2090      0.000630
     2.2095      0.000510
     2.2100      0.000300
     2.2105      0.000110
     2.2110      0.000000
     2.2115      0.000000
     2.2120      0.000070
     2.2125      0.000330
     2.2130      0.000440
     2.2135      0.000180
     2.2140      0.000050
     2.2145      0.000160
     2.2150      0.000410
     2.2155      0.000660
     2.2160      0.000530
     2.2165      0.000210
     2.2170      0.000290
     2.2175      0.000430
     2.2180      0.000410
     2.2185      0.000550
     2.2190      0.000730
     2.2195      0.000830
     2.2200      0.000680
     2.2205      0.000270
     2.2210      0.000210
     2.2215      0.000520
     2.2220      0.000770
     2.2225      0.000860
     2.2230      0.000640
     2.2235      0.000240
     2.2240      0.000080
     2.2245      0.000080
     2.2250      0.000050
     2.2255      0.000070
     2.2260      0.000170
     2.2265      0.000370
     2.2270      0.000370
     2.2275      0.000010
     2.2280      0.000000
     2.2285      0.000000
     2.2290      0.000000
     2.2295      0.000010
     2.2300      0.000150
     2.2305      0.000530
     2.2310      0.000720
     2.2315      0.000770
     2.2320      0.000430
     2.2325      0.000030
     2.2330      0.000070
     2.2335      0.000180
     2.2340      0.000220
     2.2345      0.000370
     2.2350      0.000440
     2.2355      0.000460
     2.2360      0.000660
     2.2365      0.000900
     2.2370      0.001010
     2.2375      0.000760
     2.2380      0.000600
     2.2385      0.000550
     2.2390      0.000080
     2.2395      0.000000
     2.2400      0.000190
     2.2405      0.000340
     2.2410      0.000210
     2.2415      0.000000
     2.2420      0.000020
     2.2425      0.000250
     2.2430      0.000180
     2.2435      0.000120
     2.2440      0.000050
     2.2445      0.000000
     2.2450      0.000050
     2.2455      0.000190
     2.2460      0.000160
     2.2465      0.000220
     2.2470      0.000160
     2.2475      0.000000
     2.2480      0.000000
     2.2485      0.000000
     2.2490      0.000000
     2.2495      0.000000
     2.2500      0.000000
     2.2505      0.000000
     2.2510      0.000000
     2.2515      0.000000
     2.2520      0.000000
     2.2525      0.000000
     2.2530      0.000000
     2.2535      0.000000
     2.2540      0.000000
     2.2545      0.000000
     2.2550      0.000000
     2.2555      0.000000
     2.2560      0.000000
     2.2565      0.000000
     2.2570      0.000000
     2.2575      0.000120
     2.2580      0.000140
     2.2585      0.000020
     2.2590      0.000110
     2.2595      0.000010
     2.2600      0.000000
     2.2605      0.000000
     2.2610      0.000080
     2.2615      0.000150
     2.2620      0.000070
     2.2625      0.000080
     2.2630      0.000300
     2.2635      0.000270
     2.2640      0.000320
     2.2645      0.000290
     2.2650      0.000120
     2.2655      0.000240
     2.2660      0.000190
     2.2665      0.000080
     2.2670      0.000250
     2.2675      0.000350
     2.2680      0.000360
     2.2685      0.000270
     2.2690      0.000130
     2.2695      0.000080
     2.2700      0.000010
     2.2705      0.000100
     2.2710      0.000160
     2.2715      0.000000
     2.2720      0.000030
     2.2725      0.000190
     2.2730      0.000220
     2.2735      0.000140
     2.2740      0.000000
     2.2745      0.000000
     2.2750      0.000010
     2.2755      0.000070
     2.2760      0.000230
     2.2765      0.000440
     2.2770      0.000530
     2.2775      0.000660
     2.2780      0.000730
     2.2785      0.000380
     2.2790      0.000000
     2.2795      0.000000
     2.2800      0.000010
     2.2805      0.000050
     2.2810      0.000000
     2.2815      0.000000
     2.2820      0.000010
     2.2825      0.000060
     2.2830      0.000180
     2.2835      0.000150
     2.2840      0.000060
     2.2845      0.000320
     2.2850      0.000510
     2.2855      0.000200
     2.2860      0.000000
     2.2865      0.000000
     2.2870      0.000000
     2.2875      0.000000
     2.2880      0.000000
     2.2885      0.000000
     2.2890      0.000000
     2.2895      0.000110
     2.2900      0.000090
     2.2905      0.000000
     2.2910      0.000120
     2.2915      0.000080
     2.2920      0.000000
     2.2925      0.000080
     2.2930      0.000010
     2.2935      0.000000
     2.2940      0.000000
     2.2945      0.000000
     2.2950      0.000110
     2.2955      0.000300
     2.2960      0.000290
     2.2965      0.000090
     2.2970      0.000040
     2.2975      0.000110
     2.2980      0.000170
     2.2985      0.000350
     2.2990      0.000340
     2.2995      0.000090
     2.3000      0.000020
     2.3005      0.000010
     2.3010      0.000000
     2.3015      0.000000
     2.3020      0.000130
     2.3025      0.000210
     2.3030      0.000090
     2.3035      0.000000
     2.3040      0.000000
     2.3045      0.000000
     2.3050      0.000000
     2.3055      0.000000
     2.3060      0.000000
     2.3065      0.000000
     2.3070      0.000000
     2.3075      0.000000
     2.3080      0.000050
     2.3085      0.000160
     2.3090      0.000150
     2.3095      0.000030
     2.3100      0.000000
     2.3105      0.000000
     2.3110      0.000000
     2.3115      0.000000
     2.3120      0.000000
     2.3125      0.000000
     2.3130      0.000000
     2.3135      0.000020
     2.3140      0.000130
     2.3145      0.000260
     2.3150      0.000030
     2.3155      0.000000
     2.3160      0.000110
     2.3165      0.000020
     2.3170      0.000000
     2.3175      0.000080
     2.3180      0.000420
     2.3185      0.000380
     2.3190      0.000110
     2.3195      0.000000
     2.3200      0.000100
     2.3205      0.000150
     2.3210      0.000120
     2.3215      0.000100
     2.3220      0.000050
     2.3225      0.000000
     2.3230      0.000000
     2.3235      0.000000
     2.3240      0.000000
     2.3245      0.000000
     2.3250      0.000020
     2.3255      0.000080
     2.3260      0.000000
     2.3265      0.000000
     2.3270      0.000000
     2.3275      0.000000
     2.3280      0.000000
     2.3285      0.000000
     2.3290      0.000000
     2.3295      0.000030
     2.3300      0.000020
     2.3305      0.000150
     2.3310      0.000210
     2.3315      0.000080
     2.3320      0.000000
     2.3325      0.000000
     2.3330      0.000000
     2.3335      0.000000
     2.3340      0.000000
     2.3345      0.000000
     2.3350      0.000000
     2.3355      0.000030
     2.3360      0.000190
     2.3365      0.000390
     2.3370      0.000200
     2.3375      0.000000
     2.3380      0.000000
     2.3385      0.000070
     2.3390      0.000030
     2.3395      0.000050
     2.3400      0.000070
     2.3405      0.000020
     2.3410      0.000000
     2.3415      0.000000
     2.3420      0.000000
     2.3425      0.000000
     2.3430      0.000000
     2.3435      0.000000
     2.3440      0.000000
     2.3445      0.000000
     2.3450      0.000000
     2.3455      0.000000
     2.3460      0.000030
     2.3465      0.000260
     2.3470      0.000200
     2.3475      0.000010
     2.3480      0.000080
     2.3485      0.000450
     2.3490      0.000620
     2.3495      0.000580
     2.3500      0.000290
     2.3505      0.000060
     2.3510      0.000000
     2.3515      0.000000
     2.3520      0.000000
     2.3525      0.000000
     2.3530      0.000000
     2.3535      0.000010
     2.3540      0.000100
     2.3545      0.000570
     2.3550      0.000670
     2.3555      0.000500
     2.3560      0.000070
     2.3565      0.000000
     2.3570      0.000000
     2.3575      0.000000
     2.3580      0.000000
     2.3585      0.000000
     2.3590      0.000000
     2.3595      0.000000
     2.3600      0.000190
     2.3605      0.000540
     2.3610      0.000410
     2.3615      0.000300
     2.3620      0.000450
     2.3625      0.000170
     2.3630      0.000020
     2.3635      0.000000
     2.3640      0.000000
     2.3645      0.000000
     2.3650      0.000110
     2.3655      0.000330
     2.3660      0.000240
     2.3665      0.000000
     2.3670      0.000000
     2.3675      0.000000
     2.3680      0.000000
     2.3685      0.000000
     2.3690      0.000000
     2.3695      0.000000
     2.3700      0.000080
     2.3705      0.000190
     2.3710      0.000370
     2.3715      0.000470
     2.3720      0.000510
     2.3725      0.000520
     2.3730      0.000450
     2.3735      0.000320
     2.3740      0.000230
     2.3745      0.000180
     2.3750      0.000060
     2.3755      0.000000
     2.3760      0.000000
     2.3765      0.000000
     2.3770      0.000080
     2.3775      0.000040
     2.3780      0.000000
     2.3785      0.000000
     2.3790      0.000000
     2.3795      0.000000
     2.3800      0.000000
     2.3805      0.000000
     2.3810      0.000000
     2.3815      0.000000
     2.3820      0.000000
     2.3825      0.000000
     2.3830      0.000000
     2.3835      0.000000
     2.3840      0.000000
     2.3845      0.000000
     2.3850      0.000000
     2.3855      0.000000
     2.3860      0.000000
     2.3865      0.000000
     2.3870      0.000000
     2.3875      0.000160
     2.3880      0.000030
     2.3885      0.000000
     2.3890      0.000000
     2.3895      0.000000
     2.3900      0.000000
     2.3905      0.000000
     2.3910      0.000040
     2.3915      0.000120
     2.3920      0.000000
     2.3925      0.000000
     2.3930      0.000000
     2.3935      0.000000
     2.3940      0.000000
     2.3945      0.000000
     2.3950      0.000000
     2.3955      0.000040
     2.3960      0.000100
     2.3965      0.000090
     2.3970      0.000000
     2.3975      0.000000
     2.3980      0.000000
     2.3985      0.000000
     2.3990      0.000010
     2.3995      0.000430
     2.4000      0.000620
     2.4005      0.000320
     2.4010      0.000000
     2.4015      0.000020
     2.4020      0.000080
     2.4025      0.000130
     2.4030      0.000220
     2.4035      0.000210
     2.4040      0.000050
     2.4045      0.000000
     2.4050      0.000040
     2.4055      0.000120
     2.4060      0.000200
     2.4065      0.000240
     2.4070      0.000380
     2.4075      0.000360
     2.4080      0.000460
     2.4085      0.000420
     2.4090      0.000190
     2.4095      0.000200
     2.4100      0.000250
     2.4105      0.000150
     2.4110      0.000040
     2.4115      0.000170
     2.4120      0.000300
     2.4125      0.000030
     2.4130      0.000000
     2.4135      0.000180
     2.4140      0.000500
     2.4145      0.000680
     2.4150      0.000610
     2.4155      0.000440
     2.4160      0.000330
     2.4165      0.000110
     2.4170      0.000010
     2.4175      0.000150
     2.4180      0.000210
     2.4185      0.000140
     2.4190      0.000230
     2.4195      0.000390
     2.4200      0.000300
     2.4205      0.000000
     2.4210      0.000000
     2.4215      0.000000
     2.4220      0.000000
     2.4225      0.000000
     2.4230      0.000060
     2.4235      0.000080
     2.4240      0.000040
     2.4245      0.000000
     2.4250      0.000000
     2.4255      0.000000
     2.4260      0.000000
     2.4265      0.000000
     2.4270      0.000000
     2.4275      0.000000
     2.4280      0.000000
     2.4285      0.000000
     2.4290      0.000020
     2.4295      0.000190
     2.4300      0.000570
     2.4305      0.000790
     2.4310      0.000590
     2.4315      0.000220
     2.4320      0.000000
     2.4325      0.000050
     2.4330      0.000220
     2.4335      0.000460
     2.4340      0.000640
     2.4345      0.000630
     2.4350      0.000530
     2.4355      0.000500
     2.4360      0.000550
     2.4365      0.000580
     2.4370      0.000540
     2.4375      0.000510
     2.4380      0.000330
     2.4385      0.000090
     2.4390      0.000050
     2.4395      0.000090
     2.4400      0.000090
     2.4405      0.000180
     2.4410      0.000530
     2.4415      0.000770
     2.4420      0.000260
     2.4425      0.000050
     2.4430      0.000000
     2.4435      0.000000
     2.4440      0.000000
     2.4445      0.000000
     2.4450      0.000030
     2.4455      0.000420
     2.4460      0.000180
     2.4465      0.000040
     2.4470      0.000000
     2.4475      0.000000
     2.4480      0.000020
     2.4485      0.000060
     2.4490      0.000090
     2.4495      0.000070
     2.4500      0.000030
     2.4505      0.000010
     2.4510      0.000060
     2.4515      0.000130
     2.4520      0.000100
     2.4525      0.000000
     2.4530      0.000000
     2.4535      0.000180
     2.4540      0.000380
     2.4545      0.000360
     2.4550      0.000160
     2.4555      0.000000
     2.4560      0.000000
     2.4565      0.000000
     2.4570      0.000000
     2.4575      0.000000
     2.4580      0.000000
     2.4585      0.000010
     2.4590      0.000040
     2.4595      0.000120
     2.4600      0.000530
     2.4605      0.000780
     2.4610      0.000630
     2.4615      0.000490
     2.4620      0.000570
     2.4625      0.000800
     2.4630      0.000990
     2.4635      0.000960
     2.4640      0.001240
     2.4645      0.001690
     2.4650      0.001870
     2.4655      0.001920
     2.4660      0.002180
     2.4665      0.002350
     2.4670      0.002410
     2.4675      0.002740
     2.4680      0.002930
     2.4685      0.003010
     2.4690      0.003120
     2.4695      0.003470
     2.4700      0.004460
     2.4705      0.005390
     2.4710      0.006660
     2.4715      0.008180
     2.4720      0.010410
     2.4725      0.013980
     2.4730      0.019500
     2.4735      0.027800
     2.4740      0.045120
     2.4745      0.076250
     2.4750      0.143420
     2.4755      0.246280
     2.4760      0.343030
     2.4765      0.339230
     2.4770      0.215670
     2.4775      0.120540
     2.4780      0.069270
     2.4785      0.045700
     2.4790      0.032330
     2.4795      0.025080
     2.4800      0.020120
     2.4805      0.016600
     2.4810      0.013850
     2.4815      0.011610
     2.4820      0.009980
     2.4825      0.009080
     2.4830      0.008110
     2.4835      0.007690
     2.4840      0.007190
     2.4845      0.006730
     2.4850      0.006440
     2.4855      0.006340
     2.4860      0.006240
     2.4865      0.005890
     2.4870      0.005470
     2.4875      0.005220
     2.4880      0.005040
     2.4885      0.004850
     2.4890      0.004850
     2.4895      0.005210
     2.4900      0.005490
     2.4905      0.005360
     2.4910      0.005010
     2.4915      0.004800
     2.4920      0.004980
     2.4925      0.005380
     2.4930      0.005890
     2.4935      0.006210
     2.4940      0.006330
     2.4945      0.006400
     2.4950      0.006570
     2.4955      0.006590
     2.4960      0.006610
     2.4965      0.006820
     2.4970      0.007120
     2.4975      0.007320
     2.4980      0.007300
     2.4985      0.007320
     2.4990      0.007360
     2.4995      0.007500
     2.5000      0.007800
     2.5005      0.008210
     2.5010      0.008540
     2.5015      0.008820
     2.5020      0.009410
     2.5025      0.009920
     2.5030      0.010180
     2.5035      0.010320
     2.5040      0.010860
     2.5045      0.011650
     2.5050      0.012640
     2.5055      0.013660
     2.5060      0.014480
     2.5065      0.015010
     2.5070      0.015910
     2.5075      0.017250
     2.5080      0.018530
     2.5085      0.019860
     2.5090      0.021390
     2.5095      0.023270
     2.5100      0.025630
     2.5105      0.028240
     2.5110      0.030910
     2.5115      0.033750
     2.5120      0.036960
     2.5125      0.040780
     2.5130      0.045700
     2.5135      0.051320
     2.5140      0.057610
     2.5145      0.065010
     2.5150      0.074130
     2.5155      0.085440
     2.5160      0.098860
     2.5165      0.114730
     2.5170      0.133840
     2.5175      0.156970
     2.5180      0.184840
     2.5185      0.220370
     2.5190      0.264120
     2.5195      0.316190
     2.5200      0.376930
     2.5205      0.446280
     2.5210      0.523380
     2.5215      0.600460
     2.5220      0.667580
     2.5225      0.716140
     2.5230      0.739270
     2.5235      0.732460
     2.5240      0.692390
     2.5245      0.638740
     2.5250      0.578570
     2.5255      0.517720
     2.5260      0.460660
     2.5265      0.410730
     2.5270      0.367350
     2.5275      0.330030
     2.5280      0.298280
     2.5285      0.271400
     2.5290      0.249220
     2.5295      0.229810
     2.5300      0.213400
     2.5305      0.199930
     2.5310      0.188690
     2.5315      0.178220
     2.5320      0.169460
     2.5325      0.161730
     2.5330      0.154950
     2.5335      0.149130
     2.5340      0.144410
     2.5345      0.140810
     2.5350      0.137930
     2.5355      0.135270
     2.5360      0.132800
     2.5365      0.130810
     2.5370      0.129950
     2.5375      0.129590
     2.5380      0.129310
     2.5385      0.129060
     2.5390      0.128990
     2.5395      0.129420
     2.5400      0.130560
     2.5405      0.132300
     2.5410      0.134650
     2.5415      0.137660
     2.5420      0.141560
     2.5425      0.144640
     2.5430      0.147530
     2.5435      0.151140
     2.5440      0.156090
     2.5445      0.161700
     2.5450      0.167060
     2.5455      0.173080
     2.5460      0.180220
     2.5465      0.188660
     2.5470      0.198260
     2.5475      0.209020
     2.5480      0.219970
     2.5485      0.231730
     2.5490      0.245090
     2.5495      0.260740
     2.5500      0.279050
     2.5505      0.299010
     2.5510      0.319130
     2.5515      0.338740
     2.5520      0.363360
     2.5525      0.393300
     2.5530      0.424010
     2.5535      0.455550
     2.5540      0.489280
     2.5545      0.526750
     2.5550      0.566030
     2.5555      0.606040
     2.5560      0.646040
     2.5565      0.685280
     2.5570      0.721120
     2.5575      0.751560
     2.5580      0.775750
     2.5585      0.792920
     2.5590      0.802500
     2.5595      0.799780
     2.5600      0.792040
     2.5605      0.774860
     2.5610      0.747550
     2.5615      0.714510
     2.5620      0.680340
     2.5625      0.637160
     2.5630      0.595250
     2.5635      0.561790
     2.5640      0.528980
     2.5645      0.487740
     2.5650      0.451080
     2.5655      0.419680
     2.5660      0.391300
     2.5665      0.366830
     2.5670      0.344320
     2.5675      0.323120
     2.5680      0.304070
     2.5685      0.289300
     2.5690      0.278830
     2.5695      0.264190
     2.5700      0.247460
     2.5705      0.231230
     2.5710      0.220020
     2.5715      0.210420
     2.5720      0.201530
     2.5725      0.192250
     2.5730      0.181780
     2.5735      0.175330
     2.5740      0.172520
     2.5745      0.169210
     2.5750      0.164220
     2.5755      0.158810
     2.5760      0.156950
     2.5765      0.155510
     2.5770      0.152350
     2.5775      0.146350
     2.5780      0.141600
     2.5785      0.139640
     2.5790      0.138040
     2.5795      0.136250
     2.5800      0.134590
     2.5805      0.134560
     2.5810      0.134150
     2.5815      0.133130
     2.5820      0.131550
     2.5825      0.130150
     2.5830      0.129670
     2.5835      0.131200
     2.5840      0.133750
     2.5845      0.134800
     2.5850      0.134160
     2.5855      0.134140
     2.5860      0.134130
     2.5865      0.133970
     2.5870      0.136790
     2.5875      0.140990
     2.5880      0.144280
     2.5885      0.146740
     2.5890      0.150340
     2.5895      0.153790
     2.5900      0.156640
     2.5905      0.159710
     2.5910      0.163810
     2.5915      0.167600
     2.5920      0.173560
     2.5925      0.180530
     2.5930      0.186730
     2.5935      0.187120
     2.5940      0.194910
     2.5945      0.212830
     2.5950      0.235480
     2.5955      0.252460
     2.5960      0.257950
     2.5965      0.262750
     2.5970      0.271200
     2.5975      0.286300
     2.5980      0.303540
     2.5985      0.321150
     2.5990      0.340600
     2.5995      0.362310
     2.6000      0.385570
     2.6005      0.413720
     2.6010      0.443370
     2.6015      0.473790
     2.6020      0.504860
     2.6025      0.541600
     2.6030      0.578360
     2.6035      0.611760
     2.6040      0.638790
     2.6045      0.669480
     2.6050      0.697060
     2.6055      0.713390
     2.6060      0.715230
     2.6065      0.717970
     2.6070      0.711250
     2.6075      0.693880
     2.6080      0.667300
     2.6085      0.638980
     2.6090      0.600740
     2.6095      0.561220
     2.6100      0.523550
     2.6105      0.490980
     2.6110      0.455460
     2.6115      0.420610
     2.6120      0.387060
     2.6125      0.355150
     2.6130      0.325430
     2.6135      0.299980
     2.6140      0.277180
     2.6145      0.255200
     2.6150      0.237060
     2.6155      0.223310
     2.6160      0.209220
     2.6165      0.191350
     2.6170      0.173230
     2.6175      0.161100
     2.6180      0.151230
     2.6185      0.141590
     2.6190      0.132580
     2.6195      0.123510
     2.6200      0.115030
     2.6205      0.107740
     2.6210      0.103540
     2.6215      0.098180
     2.6220      0.092550
     2.6225      0.087150
     2.6230      0.082990
     2.6235      0.078870
     2.6240      0.074930
     2.6245      0.071300
     2.6250      0.068350
     2.6255      0.066490
     2.6260      0.064340
     2.6265      0.061500
     2.6270      0.057840
     2.6275      0.055260
     2.6280      0.053090
     2.6285      0.051260
     2.6290      0.050030
     2.6295      0.049330
     2.6300      0.048170
     2.6305      0.046320
     2.6310      0.043700
     2.6315      0.041590
     2.6320      0.040050
     2.6325      0.039100
     2.6330      0.038830
     2.6335      0.038200
     2.6340      0.036970
     2.6345      0.035310
     2.6350      0.034100
     2.6355      0.033270
     2.6360      0.032530
     2.6365      0.031810
     2.6370      0.031200
     2.6375      0.030550
     2.6380      0.029880
     2.6385      0.029210
     2.6390      0.028570
     2.6395      0.028030
     2.6400      0.027600
     2.6405      0.027270
     2.6410      0.026980
     2.6415      0.026490
     2.6420      0.025980
     2.6425      0.025550
     2.6430      0.025530
     2.6435      0.025370
     2.6440      0.025080
     2.6445      0.024690
     2.6450      0.024320
     2.6455      0.024030
     2.6460      0.023830
     2.6465      0.023750
     2.6470      0.023590
     2.6475      0.023380
     2.6480      0.023120
     2.6485      0.022820
     2.6490      0.022570
     2.6495      0.022370
     2.6500      0.022220
     2.6505      0.022110
     2.6510      0.022010
     2.6515      0.021970
     2.6520      0.021990
     2.6525      0.022050
     2.6530      0.021990
     2.6535      0.021930
     2.6540      0.021920
     2.6545      0.021920
     2.6550      0.021710
     2.6555      0.021470
     2.6560      0.021360
     2.6565      0.021630
     2.6570      0.021830
     2.6575      0.021990
     2.6580      0.022140
     2.6585      0.022680
     2.6590      0.023070
     2.6595      0.023210
     2.6600      0.022950
     2.6605      0.023060
     2.6610      0.023240
     2.6615      0.023420
     2.6620      0.023670
     2.6625      0.023880
     2.6630      0.024000
     2.6635      0.023950
     2.6640      0.025150
     2.6645      0.026130
     2.6650      0.026460
     2.6655      0.025130
     2.6660      0.025210
     2.6665      0.025920
     2.6670      0.026890
     2.6675      0.026580
     2.6680      0.026530
     2.6685      0.026590
     2.6690      0.026650
     2.6695      0.027820
     2.6700      0.029380
     2.6705      0.030490
     2.6710      0.029490
     2.6715      0.029320
     2.6720      0.029690
     2.6725      0.030450
     2.6730      0.031030
     2.6735      0.031720
     2.6740      0.032460
     2.6745      0.033210
     2.6750      0.034140
     2.6755      0.035100
     2.6760      0.035950
     2.6765      0.036340
     2.6770      0.035930
     2.6775      0.035610
     2.6780      0.035670
     2.6785      0.037030
     2.6790      0.037510
     2.6795      0.037240
     2.6800      0.036190
     2.6805      0.036080
     2.6810      0.036130
     2.6815      0.036200
     2.6820      0.036130
     2.6825      0.036070
     2.6830      0.035990
     2.6835      0.035900
     2.6840      0.036060
     2.6845      0.036120
     2.6850      0.036080
     2.6855      0.035870
     2.6860      0.035690
     2.6865      0.035450
     2.6870      0.035100
     2.6875      0.034500
     2.6880      0.033940
     2.6885      0.033430
     2.6890      0.033070
     2.6895      0.032740
     2.6900      0.032450
     2.6905      0.032230
     2.6910      0.032330
     2.6915      0.032560
     2.6920      0.032780
     2.6925      0.032800
     2.6930      0.032780
     2.6935      0.032660
     2.6940      0.032440
     2.6945      0.032070
     2.6950      0.031930
     2.6955      0.031940
     2.6960      0.032070
     2.6965      0.032200
     2.6970      0.032380
     2.6975      0.032630
     2.6980      0.032760
     2.6985      0.032920
     2.6990      0.033140
     2.6995      0.033480
     2.7000      0.033600
     2.7005      0.033480
     2.7010      0.033110
     2.7015      0.032840
     2.7020      0.032730
     2.7025      0.032690
     2.7030      0.032550
     2.7035      0.031930
     2.7040      0.031050
     2.7045      0.029930
     2.7050      0.028970
     2.7055      0.028070
     2.7060      0.027130
     2.7065      0.025780
     2.7070      0.024110
     2.7075      0.022410
     2.7080      0.020860
     2.7085      0.019130
     2.7090      0.017650
     2.7095      0.016480
     2.7100      0.015950
     2.7105      0.014870
     2.7110      0.013490
     2.7115      0.012020
     2.7120      0.011020
     2.7125      0.010080
     2.7130      0.009100
     2.7135      0.008180
     2.7140      0.007350
     2.7145      0.006630
     2.7150      0.006080
     2.7155      0.005570
     2.7160      0.005170
     2.7165      0.004930
     2.7170      0.005090
     2.7175      0.005210
     2.7180      0.005210
     2.7185      0.004730
     2.7190      0.004130
     2.7195      0.003500
     2.7200      0.003030
     2.7205      0.002820
     2.7210      0.002730
     2.7215      0.002740
     2.7220      0.002880
     2.7225      0.003040
     2.7230      0.003220
     2.7235      0.003360
     2.7240      0.003350
     2.7245      0.003230
     2.7250      0.003010
     2.7255      0.002990
     2.7260      0.003060
     2.7265      0.003160
     2.7270      0.003110
     2.7275      0.003030
     2.7280      0.002940
     2.7285      0.002740
     2.7290      0.002570
     2.7295      0.002410
     2.7300      0.002160
     2.7305      0.001680
     2.7310      0.001250
     2.7315      0.001220
     2.7320      0.001900
     2.7325      0.002590
     2.7330      0.003100
     2.7335      0.003000
     2.7340      0.002830
     2.7345      0.002650
     2.7350      0.002690
     2.7355      0.002710
     2.7360      0.002690
     2.7365      0.002460
     2.7370      0.002260
     2.7375      0.002160
     2.7380      0.002290
     2.7385      0.002580
     2.7390      0.002970
     2.7395      0.003470
     2.7400      0.003990
     2.7405      0.004180
     2.7410      0.004030
     2.7415      0.003430
     2.7420      0.003060
     2.7425      0.002880
     2.7430      0.002940
     2.7435      0.003000
     2.7440      0.003070
     2.7445      0.003220
     2.7450      0.003220
     2.7455      0.003130
     2.7460      0.002980
     2.7465      0.003070
     2.7470      0.003150
     2.7475      0.003180
     2.7480      0.003200
     2.7485      0.003190
     2.7490      0.003130
     2.7495      0.002770
     2.7500      0.002380
     2.7505      0.002020
     2.7510      0.001960
     2.7515      0.002410
     2.7520      0.003020
     2.7525      0.003450
     2.7530      0.003270
     2.7535      0.002990
     2.7540      0.002870
     2.7545      0.003340
     2.7550      0.003740
     2.7555      0.003900
     2.7560      0.003380
     2.7565      0.002860
     2.7570      0.002400
     2.7575      0.002410
     2.7580      0.002450
     2.7585      0.002520
     2.7590      0.002430
     2.7595      0.002390
     2.7600      0.002390
     2.7605      0.002450
     2.7610      0.002460
     2.7615      0.002460
     2.7620      0.002520
     2.7625      0.002730
     2.7630      0.003010
     2.7635      0.003330
     2.7640      0.003380
     2.7645      0.003210
     2.7650      0.002760
     2.7655      0.002580
     2.7660      0.002630
     2.7665      0.003030
     2.7670      0.003540
     2.7675      0.003970
     2.7680      0.004230
     2.7685      0.004000
     2.7690      0.003870
     2.7695      0.003900
     2.7700      0.004520
     2.7705      0.004870
     2.7710      0.004910
     2.7715      0.004370
     2.7720      0.004000
     2.7725      0.003820
     2.7730      0.004020
     2.7735      0.004120
     2.7740      0.004140
     2.7745      0.004240
     2.7750      0.004620
     2.7755      0.005240
     2.7760      0.006150
     2.7765      0.006790
     2.7770      0.007180
     2.7775      0.007010
     2.7780      0.007050
     2.7785      0.007270
     2.7790      0.007760
     2.7795      0.008000
     2.7800      0.008110
     2.7805      0.008190
     2.7810      0.008460
     2.7815      0.008850
     2.7820      0.009390
     2.7825      0.009960
     2.7830      0.010470
     2.7835      0.010710
     2.7840      0.010850
     2.7845      0.011060
     2.7850      0.011690
     2.7855      0.012700
     2.7860      0.013790
     2.7865      0.014650
     2.7870      0.015270
     2.7875      0.015770
     2.7880      0.016140
     2.7885      0.016570
     2.7890      0.017130
     2.7895      0.018040
     2.7900      0.018900
     2.7905      0.019730
     2.7910      0.020590
     2.7915      0.021700
     2.7920      0.022910
     2.7925      0.024190
     2.7930      0.025750
     2.7935      0.027370
     2.7940      0.028880
     2.7945      0.030160
     2.7950      0.031470
     2.7955      0.033200
     2.7960      0.035160
     2.7965      0.037190
     2.7970      0.039030
     2.7975      0.040740
     2.7980      0.042430
     2.7985      0.044290
     2.7990      0.046400
     2.7995      0.048670
     2.8000      0.051060
     2.8005      0.053490
     2.8010      0.056000
     2.8015      0.059010
     2.8020      0.061990
     2.8025      0.064910
     2.8030      0.067330
     2.8035      0.069930
     2.8040      0.072640
     2.8045      0.075100
     2.8050      0.077650
     2.8055      0.080270
     2.8060      0.083510
     2.8065      0.086700
     2.8070      0.089820
     2.8075      0.092970
     2.8080      0.096160
     2.8085      0.099390
     2.8090      0.102390
     2.8095      0.105320
     2.8100      0.108160
     2.8105      0.111190
     2.8110      0.114250
     2.8115      0.117330
     2.8120      0.120380
     2.8125      0.123570
     2.8130      0.127060
     2.8135      0.130540
     2.8140      0.133950
     2.8145      0.137170
     2.8150      0.140380
     2.8155      0.143580
     2.8160      0.146830
     2.8165      0.150070
     2.8170      0.153300
     2.8175      0.156520
     2.8180      0.159920
     2.8185      0.163430
     2.8190      0.166950
     2.8195      0.170250
     2.8200      0.173380
     2.8205      0.176210
     2.8210      0.179070
     2.8215      0.181960
     2.8220      0.184970
     2.8225      0.187940
     2.8230      0.190860
     2.8235      0.193780
     2.8240      0.196810
     2.8245      0.200040
     2.8250      0.203520
     2.8255      0.206990
     2.8260      0.210320
     2.8265      0.213590
     2.8270      0.216840
     2.8275      0.220140
     2.8280      0.223320
     2.8285      0.226440
     2.8290      0.229530
     2.8295      0.232770
     2.8300      0.236110
     2.8305      0.239990
     2.8310      0.243760
     2.8315      0.247400
     2.8320      0.250610
     2.8325      0.254110
     2.8330      0.258130
     2.8335      0.262050
     2.8340      0.265800
     2.8345      0.269140
     2.8350      0.272850
     2.8355      0.276660
     2.8360      0.280290
     2.8365      0.283990
     2.8370      0.287770
     2.8375      0.291970
     2.8380      0.296030
     2.8385      0.299980
     2.8390      0.304060
     2.8395      0.308070
     2.8400      0.311950
     2.8405      0.315910
     2.8410      0.320090
     2.8415      0.324750
     2.8420      0.329040
     2.8425      0.333140
     2.8430      0.336960
     2.8435      0.341210
     2.8440      0.345710
     2.8445      0.350440
     2.8450      0.355090
     2.8455      0.359660
     2.8460      0.364520
     2.8465      0.369370
     2.8470      0.374190
     2.8475      0.378690
     2.8480      0.383260
     2.8485      0.388160
     2.8490      0.392980
     2.8495      0.397680
     2.8500      0.401840
     2.8505      0.406310
     2.8510      0.411030
     2.8515      0.416000
     2.8520      0.420800
     2.8525      0.425380
     2.8530      0.430150
     2.8535      0.434930
     2.8540      0.439680
     2.8545      0.443940
     2.8550      0.448030
     2.8555      0.452140
     2.8560      0.456380
     2.8565      0.460710
     2.8570      0.464640
     2.8575      0.468680
     2.8580      0.472860
     2.8585      0.477320
     2.8590      0.481630
     2.8595      0.485480
     2.8600      0.489020
     2.8605      0.492400
     2.8610      0.495700
     2.8615      0.499010
     2.8620      0.502320
     2.8625      0.505630
     2.8630      0.508810
     2.8635      0.511790
     2.8640      0.514370
     2.8645      0.516860
     2.8650      0.519340
     2.8655      0.521950
     2.8660      0.524570
     2.8665      0.526220
     2.8670      0.527560
     2.8675      0.528560
     2.8680      0.530320
     2.8685      0.532080
     2.8690      0.533660
     2.8695      0.534860
     2.8700      0.535920
     2.8705      0.537110
     2.8710      0.537890
     2.8715      0.538300
     2.8720      0.538350
     2.8725      0.538410
     2.8730      0.538510
     2.8735      0.538090
     2.8740      0.537450
     2.8745      0.536600
     2.8750      0.535780
     2.8755      0.535000
     2.8760      0.533950
     2.8765      0.532840
     2.8770      0.531610
     2.8775      0.530230
     2.8780      0.528740
     2.8785      0.526950
     2.8790      0.525100
     2.8795      0.523200
     2.8800      0.521520
     2.8805      0.519830
     2.8810      0.518140
     2.8815      0.516130
     2.8820      0.513930
     2.8825      0.511290
     2.8830      0.508450
     2.8835      0.505480
     2.8840      0.502680
     2.8845      0.499900
     2.8850      0.497170
     2.8855      0.494380
     2.8860      0.491640
     2.8865      0.489160
     2.8870      0.486800
     2.8875      0.484520
     2.8880      0.482020
     2.8885      0.479310
     2.8890      0.476260
     2.8895      0.472920
     2.8900      0.469540
     2.8905      0.466550
     2.8910      0.463730
     2.8915      0.461060
     2.8920      0.458100
     2.8925      0.455170
     2.8930      0.452420
     2.8935      0.449740
     2.8940      0.447070
     2.8945      0.444300
     2.8950      0.441680
     2.8955      0.439250
     2.8960      0.436400
     2.8965      0.433480
     2.8970      0.430660
     2.8975      0.428090
     2.8980      0.425690
     2.8985      0.422930
     2.8990      0.420470
     2.8995      0.418540
     2.9000      0.416750
     2.9005      0.414920
     2.9010      0.412380
     2.9015      0.409910
     2.9020      0.407480
     2.9025      0.405500
     2.9030      0.403710
     2.9035      0.402290
     2.9040      0.400570
     2.9045      0.398660
     2.9050      0.396510
     2.9055      0.394500
     2.9060      0.392760
     2.9065      0.390980
     2.9070      0.389210
     2.9075      0.387650
     2.9080      0.386210
     2.9085      0.384900
     2.9090      0.383620
     2.9095      0.382310
     2.9100      0.380890
     2.9105      0.379500
     2.9110      0.378130
     2.9115      0.376980
     2.9120      0.375790
     2.9125      0.374500
     2.9130      0.373470
     2.9135      0.372590
     2.9140      0.372200
     2.9145      0.371750
     2.9150      0.371220
     2.9155      0.370440
     2.9160      0.369570
     2.9165      0.368510
     2.9170      0.367720
     2.9175      0.367230
     2.9180      0.367240
     2.9185      0.367340
     2.9190      0.367430
     2.9195      0.367420
     2.9200      0.367310
     2.9205      0.366930
     2.9210      0.366600
     2.9215      0.366450
     2.9220      0.366580
     2.9225      0.366880
     2.9230      0.366850
     2.9235      0.366760
     2.9240      0.366570
     2.9245      0.366650
     2.9250      0.366860
     2.9255      0.367230
     2.9260      0.367720
     2.9265      0.368410
     2.9270      0.369280
     2.9275      0.370180
     2.9280      0.370600
     2.9285      0.370990
     2.9290      0.371310
     2.9295      0.371980
     2.9300      0.372740
     2.9305      0.373390
     2.9310      0.374100
     2.9315      0.374890
     2.9320      0.375890
     2.9325      0.376910
     2.9330      0.377690
     2.9335      0.378500
     2.9340      0.379360
     2.9345      0.380520
     2.9350      0.381790
     2.9355      0.383360
     2.9360      0.385050
     2.9365      0.386860
     2.9370      0.388410
     2.9375      0.389910
     2.9380      0.391390
     2.9385      0.392940
     2.9390      0.394590
     2.9395      0.396190
     2.9400      0.397800
     2.9405      0.399450
     2.9410      0.401260
     2.9415      0.403230
     2.9420      0.405500
     2.9425      0.407770
     2.9430      0.409650
     2.9435      0.411350
     2.9440      0.412840
     2.9445      0.414730
     2.9450      0.416760
     2.9455      0.419000
     2.9460      0.421320
     2.9465      0.423740
     2.9470      0.426210
     2.9475      0.428650
     2.9480      0.430890
     2.9485      0.433160
     2.9490      0.435470
     2.9495      0.437750
     2.9500      0.440020
     2.9505      0.442260
     2.9510      0.444620
     2.9515      0.447150
     2.9520      0.449690
     2.9525      0.452230
     2.9530      0.454750
     2.9535      0.457450
     2.9540      0.460460
     2.9545      0.463590
     2.9550      0.466770
     2.9555      0.469370
     2.9560      0.471950
     2.9565      0.474460
     2.9570      0.477230
     2.9575      0.480140
     2.9580      0.483020
     2.9585      0.485900
     2.9590      0.488760
     2.9595      0.491640
     2.9600      0.494530
     2.9605      0.497140
     2.9610      0.499700
     2.9615      0.502180
     2.9620      0.504770
     2.9625      0.507470
     2.9630      0.510270
     2.9635      0.513110
     2.9640      0.516110
     2.9645      0.519090
     2.9650      0.522050
     2.9655      0.524830
     2.9660      0.527550
     2.9665      0.530340
     2.9670      0.533050
     2.9675      0.535610
     2.9680      0.538030
     2.9685      0.540360
     2.9690      0.542920
     2.9695      0.545460
     2.9700      0.547830
     2.9705      0.550240
     2.9710      0.552680
     2.9715      0.555610
     2.9720      0.558600
     2.9725      0.561340
     2.9730      0.563820
     2.9735      0.565940
     2.9740      0.567840
     2.9745      0.569660
     2.9750      0.571710
     2.9755      0.573850
     2.9760      0.576210
     2.9765      0.578250
     2.9770      0.580080
     2.9775      0.581850
     2.9780      0.583680
     2.9785      0.585860
     2.9790      0.587790
     2.9795      0.589430
     2.9800      0.590750
     2.9805      0.591990
     2.9810      0.593580
     2.9815      0.595190
     2.9820      0.596840
     2.9825      0.598240
     2.9830      0.599480
     2.9835      0.600670
     2.9840      0.601890
     2.9845      0.603210
     2.9850      0.604450
     2.9855      0.605590
     2.9860      0.606450
     2.9865      0.607220
     2.9870      0.607770
     2.9875      0.608340
     2.9880      0.608990
     2.9885      0.609670
     2.9890      0.610360
     2.9895      0.611040
     2.9900      0.611730
     2.9905      0.612530
     2.9910      0.613190
     2.9915      0.613670
     2.9920      0.614010
     2.9925      0.614300
     2.9930      0.614600
     2.9935      0.614890
     2.9940      0.615070
     2.9945      0.615370
     2.9950      0.615790
     2.9955      0.616130
     2.9960      0.616430
     2.9965      0.616390
     2.9970      0.616270
     2.9975      0.615990
     2.9980      0.615570
     2.9985      0.615050
     2.9990      0.614770
     2.9995      0.614530
     3.0000      0.614220
     3.0005      0.613900
     3.0010      0.613590
     3.0015      0.613640
     3.0020      0.613900
     3.0025      0.613940
     3.0030      0.613860
     3.0035      0.613300
     3.0040      0.612740
     3.0045      0.612160
     3.0050      0.611650
     3.0055      0.611170
     3.0060      0.610590
     3.0065      0.610020
     3.0070      0.609440
     3.0075      0.608960
     3.0080      0.608610
     3.0085      0.608130
     3.0090      0.607590
     3.0095      0.606950
     3.0100      0.606390
     3.0105      0.606110
     3.0110      0.605850
     3.0115      0.605640
     3.0120      0.605380
     3.0125      0.605100
     3.0130      0.604850
     3.0135      0.604590
     3.0140      0.604250
     3.0145      0.603850
     3.0150      0.603380
     3.0155      0.602810
     3.0160      0.602200
     3.0165      0.601790
     3.0170      0.601500
     3.0175      0.601650
     3.0180      0.601680
     3.0185      0.601590
     3.0190      0.601240
     3.0195      0.600770
     3.0200      0.600530
     3.0205      0.600280
     3.0210      0.599890
     3.0215      0.599410
     3.0220      0.598820
     3.0225      0.598210
     3.0230      0.597610
     3.0235      0.597130
     3.0240      0.596750
     3.0245      0.597000
     3.0250      0.597260
     3.0255      0.597570
     3.0260      0.597730
     3.0265      0.597810
     3.0270      0.598090
     3.0275      0.598400
     3.0280      0.598420
     3.0285      0.598410
     3.0290      0.598290
     3.0295      0.598300
     3.0300      0.598430
     3.0305      0.598620
     3.0310      0.598830
     3.0315      0.599370
     3.0320      0.599990
     3.0325      0.600860
     3.0330      0.601750
     3.0335      0.602640
     3.0340      0.603330
     3.0345      0.603910
     3.0350      0.604110
     3.0355      0.604250
     3.0360      0.604340
     3.0365      0.604550
     3.0370      0.604980
     3.0375      0.605490
     3.0380      0.606070
     3.0385      0.606470
     3.0390      0.606810
     3.0395      0.607460
     3.0400      0.608210
     3.0405      0.609300
     3.0410      0.610230
     3.0415      0.610950
     3.0420      0.611560
     3.0425      0.612090
     3.0430      0.612780
     3.0435      0.613510
     3.0440      0.614510
     3.0445      0.615550
     3.0450      0.616700
     3.0455      0.617730
     3.0460      0.618660
     3.0465      0.619540
     3.0470      0.620390
     3.0475      0.621390
     3.0480      0.622420
     3.0485      0.623590
     3.0490      0.624700
     3.0495      0.625700
     3.0500      0.626580
     3.0505      0.627340
     3.0510      0.628100
     3.0515      0.628860
     3.0520      0.629940
     3.0525      0.631130
     3.0530      0.632830
     3.0535      0.634440
     3.0540      0.635890
     3.0545      0.636910
     3.0550      0.637590
     3.0555      0.638250
     3.0560      0.638900
     3.0565      0.639890
     3.0570      0.640980
     3.0575      0.642520
     3.0580      0.644070
     3.0585      0.645630
     3.0590      0.646990
     3.0595      0.648200
     3.0600      0.649410
     3.0605      0.650630
     3.0610      0.651660
     3.0615      0.652660
     3.0620      0.653530
     3.0625      0.654340
     3.0630      0.655020
     3.0635      0.655540
     3.0640      0.655900
     3.0645      0.656770
     3.0650      0.657860
     3.0655      0.659450
     3.0660      0.661060
     3.0665      0.662180
     3.0670      0.663180
     3.0675      0.663880
     3.0680      0.664640
     3.0685      0.665480
     3.0690      0.666540
     3.0695      0.667730
     3.0700      0.668790
     3.0705      0.669820
     3.0710      0.670440
     3.0715      0.671030
     3.0720      0.671480
     3.0725      0.671860
     3.0730      0.672120
     3.0735      0.672510
     3.0740      0.673010
     3.0745      0.673830
     3.0750      0.674780
     3.0755      0.675510
     3.0760      0.676160
     3.0765      0.676180
     3.0770      0.676210
     3.0775      0.676310
     3.0780      0.676600
     3.0785      0.677160
     3.0790      0.677440
     3.0795      0.677520
     3.0800      0.677480
     3.0805      0.677390
     3.0810      0.677630
     3.0815      0.677860
     3.0820      0.677710
     3.0825      0.677500
     3.0830      0.677090
     3.0835      0.676780
     3.0840      0.676580
     3.0845      0.676270
     3.0850      0.675890
     3.0855      0.675470
     3.0860      0.675030
     3.0865      0.675140
     3.0870      0.675290
     3.0875      0.675380
     3.0880      0.675260
     3.0885      0.674540
     3.0890      0.673760
     3.0895      0.672900
     3.0900      0.672080
     3.0905      0.671300
     3.0910      0.670480
     3.0915      0.669660
     3.0920      0.669120
     3.0925      0.668630
     3.0930      0.668230
     3.0935      0.667730
     3.0940      0.666800
     3.0945      0.665650
     3.0950      0.664100
     3.0955      0.662690
     3.0960      0.661420
     3.0965      0.660500
     3.0970      0.659760
     3.0975      0.658740
     3.0980      0.657660
     3.0985      0.656340
     3.0990      0.655040
     3.0995      0.653990
     3.1000      0.652910
     3.1005      0.651750
     3.1010      0.650520
     3.1015      0.649190
     3.1020      0.647980
     3.1025      0.646870
     3.1030      0.645810
     3.1035      0.644780
     3.1040      0.643810
     3.1045      0.642860
     3.1050      0.642210
     3.1055      0.641530
     3.1060      0.640610
     3.1065      0.639580
     3.1070      0.638190
     3.1075      0.636750
     3.1080      0.635230
     3.1085      0.633680
     3.1090      0.632120
     3.1095      0.630770
     3.1100      0.629520
     3.1105      0.628570
     3.1110      0.627700
     3.1115      0.626520
     3.1120      0.625300
     3.1125      0.623800
     3.1130      0.622370
     3.1135      0.621240
     3.1140      0.620090
     3.1145      0.618890
     3.1150      0.617570
     3.1155      0.616130
     3.1160      0.614910
     3.1165      0.613860
     3.1170      0.612960
     3.1175      0.612120
     3.1180      0.611280
     3.1185      0.610440
     3.1190      0.609180
     3.1195      0.607860
     3.1200      0.606200
     3.1205      0.604640
     3.1210      0.603500
     3.1215      0.602440
     3.1220      0.601550
     3.1225      0.600690
     3.1230      0.599870
     3.1235      0.599060
     3.1240      0.598240
     3.1245      0.597190
     3.1250      0.596040
     3.1255      0.595030
     3.1260      0.594050
     3.1265      0.592980
     3.1270      0.591890
     3.1275      0.590650
     3.1280      0.589500
     3.1285      0.588900
     3.1290      0.588280
     3.1295      0.587560
     3.1300      0.586520
     3.1305      0.584920
     3.1310      0.583420
     3.1315      0.582040
     3.1320      0.581180
     3.1325      0.580710
     3.1330      0.580260
     3.1335      0.579820
     3.1340      0.579200
     3.1345      0.578530
     3.1350      0.577810
     3.1355      0.577080
     3.1360      0.576010
     3.1365      0.574940
     3.1370      0.573860
     3.1375      0.572880
     3.1380      0.572270
     3.1385      0.571640
     3.1390      0.570970
     3.1395      0.570070
     3.1400      0.568840
     3.1405      0.567750
     3.1410      0.566800
     3.1415      0.566120
     3.1420      0.565600
     3.1425      0.564730
     3.1430      0.563720
     3.1435      0.562880
     3.1440      0.562090
     3.1445      0.561880
     3.1450      0.561730
     3.1455      0.561200
     3.1460      0.560640
     3.1465      0.559860
     3.1470      0.559090
     3.1475      0.558320
     3.1480      0.557510
     3.1485      0.556560
     3.1490      0.555750
     3.1495      0.555220
     3.1500      0.554630
     3.1505      0.553990
     3.1510      0.552860
     3.1515      0.551280
     3.1520      0.549930
     3.1525      0.548720
     3.1530      0.548240
     3.1535      0.548090
     3.1540      0.547960
     3.1545      0.547840
     3.1550      0.547070
     3.1555      0.546190
     3.1560      0.544760
     3.1565      0.543290
     3.1570      0.542330
     3.1575      0.541410
     3.1580      0.540970
     3.1585      0.540450
     3.1590      0.539520
     3.1595      0.538570
     3.1600      0.537510
     3.1605      0.536480
     3.1610      0.535510
     3.1615      0.534450
     3.1620      0.533230
     3.1625      0.532020
     3.1630      0.530810
     3.1635      0.529620
     3.1640      0.528440
     3.1645      0.527250
     3.1650      0.526060
     3.1655      0.524980
     3.1660      0.523950
     3.1665      0.522870
     3.1670      0.521760
     3.1675      0.520290
     3.1680      0.518710
     3.1685      0.517180
     3.1690      0.515650
     3.1695      0.514690
     3.1700      0.513770
     3.1705      0.512860
     3.1710      0.511920
     3.1715      0.510520
     3.1720      0.509060
     3.1725      0.507250
     3.1730      0.505470
     3.1735      0.503790
     3.1740      0.502180
     3.1745      0.500820
     3.1750      0.499390
     3.1755      0.497760
     3.1760      0.496140
     3.1765      0.494560
     3.1770      0.493110
     3.1775      0.491840
     3.1780      0.490490
     3.1785      0.489020
     3.1790      0.487610
     3.1795      0.486260
     3.1800      0.485010
     3.1805      0.483830
     3.1810      0.482380
     3.1815      0.480730
     3.1820      0.478990
     3.1825      0.477190
     3.1830      0.475720
     3.1835      0.474400
     3.1840      0.473070
     3.1845      0.471750
     3.1850      0.470280
     3.1855      0.468780
     3.1860      0.467280
     3.1865      0.465800
     3.1870      0.463890
     3.1875      0.461910
     3.1880      0.460110
     3.1885      0.458320
     3.1890      0.457300
     3.1895      0.456320
     3.1900      0.455210
     3.1905      0.454090
     3.1910      0.452580
     3.1915      0.451080
     3.1920      0.449540
     3.1925      0.448010
     3.1930      0.446610
     3.1935      0.445220
     3.1940      0.443950
     3.1945      0.442640
     3.1950      0.441080
     3.1955      0.439490
     3.1960      0.437760
     3.1965      0.436110
     3.1970      0.434720
     3.1975      0.433420
     3.1980      0.432340
     3.1985      0.431230
     3.1990      0.430000
     3.1995      0.428710
     3.2000      0.427270
     3.2005      0.425810
     3.2010      0.424320
     3.2015      0.422890
     3.2020      0.421570
     3.2025      0.420280
     3.2030      0.419050
     3.2035      0.417670
     3.2040      0.416070
     3.2045      0.414530
     3.2050      0.413080
     3.2055      0.411810
     3.2060      0.410760
     3.2065      0.409580
     3.2070      0.408250
     3.2075      0.406970
     3.2080      0.405760
     3.2085      0.404670
     3.2090      0.403710
     3.2095      0.402650
     3.2100      0.401490
     3.2105      0.400410
     3.2110      0.399380
     3.2115      0.398520
     3.2120      0.397800
     3.2125      0.397110
     3.2130      0.396440
     3.2135      0.395660
     3.2140      0.394790
     3.2145      0.393840
     3.2150      0.392840
     3.2155      0.391960
     3.2160      0.391190
     3.2165      0.390570
     3.2170      0.390070
     3.2175      0.389600
     3.2180      0.389170
     3.2185      0.388730
     3.2190      0.388280
     3.2195      0.387720
     3.2200      0.387100
     3.2205      0.386300
     3.2210      0.385370
     3.2215      0.384630
     3.2220      0.384040
     3.2225      0.383910
     3.2230      0.384140
     3.2235      0.384310
     3.2240      0.384460
     3.2245      0.384240
     3.2250      0.383760
     3.2255      0.383290
     3.2260      0.382820
     3.2265      0.382480
     3.2270      0.382250
     3.2275      0.382160
     3.2280      0.382190
     3.2285      0.382430
     3.2290      0.382860
     3.2295      0.383220
     3.2300      0.383510
     3.2305      0.383620
     3.2310      0.383570
     3.2315      0.383650
     3.2320      0.383880
     3.2325      0.384320
     3.2330      0.385000
     3.2335      0.385650
     3.2340      0.386270
     3.2345      0.386840
     3.2350      0.387350
     3.2355      0.387970
     3.2360      0.388730
     3.2365      0.389420
     3.2370      0.390020
     3.2375      0.390570
     3.2380      0.391030
     3.2385      0.391750
     3.2390      0.392890
     3.2395      0.394210
     3.2400      0.395830
     3.2405      0.397350
     3.2410      0.398660
     3.2415      0.399840
     3.2420      0.400740
     3.2425      0.401640
     3.2430      0.402560
     3.2435      0.403600
     3.2440      0.405010
     3.2445      0.406440
     3.2450      0.407940
     3.2455      0.409380
     3.2460      0.410530
     3.2465      0.411690
     3.2470      0.412870
     3.2475      0.414080
     3.2480      0.415470
     3.2485      0.416880
     3.2490      0.418480
     3.2495      0.420100
     3.2500      0.422060
     3.2505      0.424020
     3.2510      0.426130
     3.2515      0.428250
     3.2520      0.430450
     3.2525      0.432650
     3.2530      0.434750
     3.2535      0.436840
     3.2540      0.438860
     3.2545      0.440860
     3.2550      0.443190
     3.2555      0.445590
     3.2560      0.448000
     3.2565      0.450410
     3.2570      0.452620
     3.2575      0.454770
     3.2580      0.457050
     3.2585      0.459380
     3.2590      0.461780
     3.2595      0.464220
     3.2600      0.466710
     3.2605      0.469230
     3.2610      0.471930
     3.2615      0.474760
     3.2620      0.477660
     3.2625      0.480630
     3.2630      0.483550
     3.2635      0.486410
     3.2640      0.489180
     3.2645      0.491810
     3.2650      0.494510
     3.2655      0.497340
     3.2660      0.500300
     3.2665      0.503580
     3.2670      0.506850
     3.2675      0.510110
     3.2680      0.513360
     3.2685      0.516600
     3.2690      0.519870
     3.2695      0.523310
     3.2700      0.526760
     3.2705      0.530180
     3.2710      0.533610
     3.2715      0.536890
     3.2720      0.540180
     3.2725      0.543540
     3.2730      0.546900
     3.2735      0.550410
     3.2740      0.553940
     3.2745      0.557470
     3.2750      0.561000
     3.2755      0.564480
     3.2760      0.567930
     3.2765      0.571250
     3.2770      0.574490
     3.2775      0.577870
     3.2780      0.581330
     3.2785      0.584990
     3.2790      0.588830
     3.2795      0.592450
     3.2800      0.595820
     3.2805      0.599110
     3.2810      0.602270
     3.2815      0.605500
     3.2820      0.608910
     3.2825      0.612340
     3.2830      0.615830
     3.2835      0.619340
     3.2840      0.622930
     3.2845      0.626510
     3.2850      0.629790
     3.2855      0.633080
     3.2860      0.636010
     3.2865      0.638930
     3.2870      0.641940
     3.2875      0.644960
     3.2880      0.648200
     3.2885      0.651490
     3.2890      0.654720
     3.2895      0.657920
     3.2900      0.660850
     3.2905      0.663620
     3.2910      0.666340
     3.2915      0.669030
     3.2920      0.671580
     3.2925      0.673980
     3.2930      0.676190
     3.2935      0.678050
     3.2940      0.679990
     3.2945      0.682110
     3.2950      0.684240
     3.2955      0.686380
     3.2960      0.688480
     3.2965      0.690020
     3.2970      0.691570
     3.2975      0.693140
     3.2980      0.694710
     3.2985      0.696040
     3.2990      0.697340
     3.2995      0.698120
     3.3000      0.698770
     3.3005      0.699700
     3.3010      0.700760
     3.3015      0.701920
     3.3020      0.703160
     3.3025      0.704140
     3.3030      0.704850
     3.3035      0.705560
     3.3040      0.706260
     3.3045      0.706910
     3.3050      0.707430
     3.3055      0.707860
     3.3060      0.707870
     3.3065      0.707870
     3.3070      0.707550
     3.3075      0.707240
     3.3080      0.706790
     3.3085      0.706340
     3.3090      0.706030
     3.3095      0.705750
     3.3100      0.705390
     3.3105      0.705010
     3.3110      0.704410
     3.3115      0.703680
     3.3120      0.702850
     3.3125      0.701930
     3.3130      0.700990
     3.3135      0.700000
     3.3140      0.699060
     3.3145      0.698260
     3.3150      0.697440
     3.3155      0.696550
     3.3160      0.695650
     3.3165      0.694400
     3.3170      0.693150
     3.3175      0.691890
     3.3180      0.690620
     3.3185      0.689030
     3.3190      0.687360
     3.3195      0.685550
     3.3200      0.683660
     3.3205      0.682000
     3.3210      0.680530
     3.3215      0.679010
     3.3220      0.677430
     3.3225      0.675860
     3.3230      0.674310
     3.3235      0.672780
     3.3240      0.671380
     3.3245      0.669980
     3.3250      0.668230
     3.3255      0.666490
     3.3260      0.664540
     3.3265      0.662580
     3.3270      0.660760
     3.3275      0.658990
     3.3280      0.657500
     3.3285      0.656180
     3.3290      0.654700
     3.3295      0.653050
     3.3300      0.651200
     3.3305      0.648990
     3.3310      0.646880
     3.3315      0.645110
     3.3320      0.643370
     3.3325      0.641940
     3.3330      0.640520
     3.3335      0.639190
     3.3340      0.637860
     3.3345      0.636530
     3.3350      0.635210
     3.3355      0.633640
     3.3360      0.631940
     3.3365      0.630270
     3.3370      0.628650
     3.3375      0.627120
     3.3380      0.625780
     3.3385      0.624410
     3.3390      0.622880
     3.3395      0.621350
     3.3400      0.619730
     3.3405      0.618110
     3.3410      0.616710
     3.3415      0.615340
     3.3420      0.614060
     3.3425      0.612800
     3.3430      0.611810
     3.3435      0.611010
     3.3440      0.610280
     3.3445      0.609670
     3.3450      0.608880
     3.3455      0.607600
     3.3460      0.606350
     3.3465      0.605320
     3.3470      0.604290
     3.3475      0.603640
     3.3480      0.603020
     3.3485      0.602100
     3.3490      0.601110
     3.3495      0.600220
     3.3500      0.599390
     3.3505      0.598680
     3.3510      0.598110
     3.3515      0.597650
     3.3520      0.597400
     3.3525      0.597180
     3.3530      0.597150
     3.3535      0.597120
     3.3540      0.596750
     3.3545      0.596370
     3.3550      0.595970
     3.3555      0.595560
     3.3560      0.595360
     3.3565      0.595280
     3.3570      0.595210
     3.3575      0.595130
     3.3580      0.595000
     3.3585      0.594700
     3.3590      0.594430
     3.3595      0.594370
     3.3600      0.594310
     3.3605      0.594440
     3.3610      0.594590
     3.3615      0.594780
     3.3620      0.594980
     3.3625      0.595320
     3.3630      0.595780
     3.3635      0.596090
     3.3640      0.596150
     3.3645      0.596190
     3.3650      0.596110
     3.3655      0.596030
     3.3660      0.596200
     3.3665      0.596380
     3.3670      0.596270
     3.3675      0.596110
     3.3680      0.596140
     3.3685      0.596290
     3.3690      0.596670
     3.3695      0.597330
     3.3700      0.597920
     3.3705      0.598310
     3.3710      0.598680
     3.3715      0.598810
     3.3720      0.598950
     3.3725      0.599030
     3.3730      0.599110
     3.3735      0.599330
     3.3740      0.599620
     3.3745      0.600000
     3.3750      0.600460
     3.3755      0.600890
     3.3760      0.601250
     3.3765      0.601590
     3.3770      0.601750
     3.3775      0.601910
     3.3780      0.601650
     3.3785      0.601350
     3.3790      0.600930
     3.3795      0.600460
     3.3800      0.600090
     3.3805      0.599820
     3.3810      0.599570
     3.3815      0.599350
     3.3820      0.599150
     3.3825      0.599040
     3.3830      0.598930
     3.3835      0.598830
     3.3840      0.598740
     3.3845      0.598490
     3.3850      0.598160
     3.3855      0.597770
     3.3860      0.597320
     3.3865      0.596850
     3.3870      0.596300
     3.3875      0.595740
     3.3880      0.594870
     3.3885      0.594000
     3.3890      0.592790
     3.3895      0.591500
     3.3900      0.590060
     3.3905      0.588530
     3.3910      0.587020
     3.3915      0.585550
     3.3920      0.584050
     3.3925      0.582420
     3.3930      0.580790
     3.3935      0.578920
     3.3940      0.577040
     3.3945      0.575500
     3.3950      0.574100
     3.3955      0.572660
     3.3960      0.571160
     3.3965      0.569400
     3.3970      0.566930
     3.3975      0.564460
     3.3980      0.562120
     3.3985      0.559780
     3.3990      0.557820
     3.3995      0.555930
     3.4000      0.553790
     3.4005      0.551490
     3.4010      0.549120
     3.4015      0.546660
     3.4020      0.544180
     3.4025      0.541630
     3.4030      0.539080
     3.4035      0.536220
     3.4040      0.533340
     3.4045      0.530470
     3.4050      0.527610
     3.4055      0.524760
     3.4060      0.521940
     3.4065      0.519080
     3.4070      0.516110
     3.4075      0.513140
     3.4080      0.509910
     3.4085      0.506660
     3.4090      0.503200
     3.4095      0.499650
     3.4100      0.496120
     3.4105      0.492610
     3.4110      0.489140
     3.4115      0.485820
     3.4120      0.482490
     3.4125      0.479210
     3.4130      0.475940
     3.4135      0.472620
     3.4140      0.469280
     3.4145      0.465900
     3.4150      0.462460
     3.4155      0.459010
     3.4160      0.455530
     3.4165      0.452050
     3.4170      0.448670
     3.4175      0.445290
     3.4180      0.442000
     3.4185      0.438750
     3.4190      0.435520
     3.4195      0.432320
     3.4200      0.429120
     3.4205      0.425940
     3.4210      0.422750
     3.4215      0.418980
     3.4220      0.415190
     3.4225      0.411170
     3.4230      0.407060
     3.4235      0.403390
     3.4240      0.400230
     3.4245      0.397120
     3.4250      0.394160
     3.4255      0.391210
     3.4260      0.387700
     3.4265      0.384150
     3.4270      0.380860
     3.4275      0.377700
     3.4280      0.374670
     3.4285      0.371830
     3.4290      0.368940
     3.4295      0.365750
     3.4300      0.362570
     3.4305      0.359500
     3.4310      0.356450
     3.4315      0.353710
     3.4320      0.351180
     3.4325      0.348590
     3.4330      0.345890
     3.4335      0.343160
     3.4340      0.340110
     3.4345      0.337060
     3.4350      0.334200
     3.4355      0.331390
     3.4360      0.328670
     3.4365      0.326020
     3.4370      0.323460
     3.4375      0.321170
     3.4380      0.318870
     3.4385      0.316970
     3.4390      0.315090
     3.4395      0.312810
     3.4400      0.310330
     3.4405      0.307600
     3.4410      0.304470
     3.4415      0.301420
     3.4420      0.299060
     3.4425      0.296700
     3.4430      0.295030
     3.4435      0.293510
     3.4440      0.291790
     3.4445      0.289890
     3.4450      0.287900
     3.4455      0.285610
     3.4460      0.283310
     3.4465      0.280860
     3.4470      0.278390
     3.4475      0.275890
     3.4480      0.273370
     3.4485      0.271150
     3.4490      0.269440
     3.4495      0.267780
     3.4500      0.266580
     3.4505      0.265390
     3.4510      0.263790
     3.4515      0.262070
     3.4520      0.260310
     3.4525      0.258510
     3.4530      0.256790
     3.4535      0.255410
     3.4540      0.254020
     3.4545      0.252510
     3.4550      0.250970
     3.4555      0.249500
     3.4560      0.248080
     3.4565      0.246830
     3.4570      0.246030
     3.4575      0.245240
     3.4580      0.244070
     3.4585      0.242880
     3.4590      0.241360
     3.4595      0.239670
     3.4600      0.238190
     3.4605      0.237060
     3.4610      0.235950
     3.4615      0.235050
     3.4620      0.234160
     3.4625      0.233170
     3.4630      0.232160
     3.4635      0.231260
     3.4640      0.230510
     3.4645      0.229730
     3.4650      0.228710
     3.4655      0.227690
     3.4660      0.226410
     3.4665      0.225070
     3.4670      0.223990
     3.4675      0.223190
     3.4680      0.222420
     3.4685      0.221820
     3.4690      0.221210
     3.4695      0.220320
     3.4700      0.219380
     3.4705      0.218460
     3.4710      0.217560
     3.4715      0.216750
     3.4720      0.216300
     3.4725      0.215850
     3.4730      0.215820
     3.4735      0.215860
     3.4740      0.215640
     3.4745      0.215210
     3.4750      0.214650
     3.4755      0.213660
     3.4760      0.212660
     3.4765      0.212220
     3.4770      0.211850
     3.4775      0.211700
     3.4780      0.211740
     3.4785      0.211760
     3.4790      0.211720
     3.4795      0.211680
     3.4800      0.211540
     3.4805      0.211380
     3.4810      0.211130
     3.4815      0.210810
     3.4820      0.210530
     3.4825      0.210410
     3.4830      0.210290
     3.4835      0.210400
     3.4840      0.210540
     3.4845      0.210670
     3.4850      0.210790
     3.4855      0.210850
     3.4860      0.210670
     3.4865      0.210490
     3.4870      0.210420
     3.4875      0.210370
     3.4880      0.210470
     3.4885      0.210730
     3.4890      0.210930
     3.4895      0.210880
     3.4900      0.210820
     3.4905      0.211000
     3.4910      0.211250
     3.4915      0.211680
     3.4920      0.212350
     3.4925      0.212970
     3.4930      0.213260
     3.4935      0.213550
     3.4940      0.213790
     3.4945      0.214000
     3.4950      0.214200
     3.4955      0.214360
     3.4960      0.214520
     3.4965      0.214670
     3.4970      0.214810
     3.4975      0.215260
     3.4980      0.215850
     3.4985      0.216460
     3.4990      0.217120
     3.4995      0.217780
     3.5000      0.218220
     3.5005      0.218650
     3.5010      0.219260
     3.5015      0.219980
     3.5020      0.220850
     3.5025      0.222160
     3.5030      0.223470
     3.5035      0.225100
     3.5040      0.226790
     3.5045      0.228250
     3.5050      0.229500
     3.5055      0.230640
     3.5060      0.231080
     3.5065      0.231510
     3.5070      0.232270
     3.5075      0.233130
     3.5080      0.234110
     3.5085      0.235270
     3.5090      0.236420
     3.5095      0.237090
     3.5100      0.237760
     3.5105      0.238970
     3.5110      0.240470
     3.5115      0.242110
     3.5120      0.244130
     3.5125      0.246150
     3.5130      0.247420
     3.5135      0.248580
     3.5140      0.249880
     3.5145      0.251300
     3.5150      0.252870
     3.5155      0.255520
     3.5160      0.258170
     3.5165      0.260560
     3.5170      0.262850
     3.5175      0.264610
     3.5180      0.265350
     3.5185      0.266100
     3.5190      0.266860
     3.5195      0.267620
     3.5200      0.268970
     3.5205      0.270760
     3.5210      0.272640
     3.5215      0.274880
     3.5220      0.277120
     3.5225      0.279460
     3.5230      0.281830
     3.5235      0.284170
     3.5240      0.286440
     3.5245      0.288710
     3.5250      0.290850
     3.5255      0.293000
     3.5260      0.295160
     3.5265      0.297350
     3.5270      0.299570
     3.5275      0.301920
     3.5280      0.304260
     3.5285      0.306810
     3.5290      0.309390
     3.5295      0.312370
     3.5300      0.315920
     3.5305      0.319470
     3.5310      0.323370
     3.5315      0.327270
     3.5320      0.330400
     3.5325      0.332980
     3.5330      0.335600
     3.5335      0.338320
     3.5340      0.341040
     3.5345      0.344290
     3.5350      0.347680
     3.5355      0.350820
     3.5360      0.353510
     3.5365      0.356210
     3.5370      0.359300
     3.5375      0.362420
     3.5380      0.365990
     3.5385      0.369950
     3.5390      0.373880
     3.5395      0.377670
     3.5400      0.381460
     3.5405      0.385290
     3.5410      0.389150
     3.5415      0.393300
     3.5420      0.398180
     3.5425      0.403060
     3.5430      0.408200
     3.5435      0.413390
     3.5440      0.417810
     3.5445      0.421290
     3.5450      0.424740
     3.5455      0.427080
     3.5460      0.429420
     3.5465      0.432600
     3.5470      0.436320
     3.5475      0.440460
     3.5480      0.446540
     3.5485      0.452610
     3.5490      0.458490
     3.5495      0.464300
     3.5500      0.469240
     3.5505      0.472360
     3.5510      0.475480
     3.5515      0.478660
     3.5520      0.481840
     3.5525      0.486100
     3.5530      0.491630
     3.5535      0.497160
     3.5540      0.502900
     3.5545      0.508640
     3.5550      0.513340
     3.5555      0.517310
     3.5560      0.521220
     3.5565      0.524820
     3.5570      0.528420
     3.5575      0.533100
     3.5580      0.538220
     3.5585      0.543290
     3.5590      0.548200
     3.5595      0.553100
     3.5600      0.556810
     3.5605      0.560260
     3.5610      0.563650
     3.5615      0.566950
     3.5620      0.570250
     3.5625      0.574130
     3.5630      0.578060
     3.5635      0.582120
     3.5640      0.586330
     3.5645      0.590510
     3.5650      0.594050
     3.5655      0.597590
     3.5660      0.601410
     3.5665      0.605410
     3.5670      0.609500
     3.5675      0.614100
     3.5680      0.618690
     3.5685      0.622170
     3.5690      0.625120
     3.5695      0.627950
     3.5700      0.630380
     3.5705      0.632800
     3.5710      0.635650
     3.5715      0.638640
